# %ECSV 0.9
# ---
# datatype:
# - {name: wavelength, unit: Angstrom, datatype: float32}
# - {name: response, datatype: float32}
# meta: !!omap
# - {band_name: F814W_81}
# - {group_name: ACS_WFC}
wavelength response
6105.70801 0.0
6784.12012 0.00202952
6784.77979 0.00206919
6785.43994 0.00210843
6786.10010 0.00214811
6786.75977 0.0021878
6787.41992 0.00222727
6788.08984 0.002267
6788.75000 0.00230672
6789.41016 0.00234624
6790.06982 0.002386
6790.72998 0.00242525
6791.39014 0.00246494
6792.06006 0.00250464
6792.72021 0.00254435
6793.37988 0.00258409
6794.04980 0.00262383
6794.70020 0.00266312
6795.37012 0.00270288
6796.02979 0.00274241
6796.68994 0.00278218
6797.35986 0.00282198
6798.02002 0.00286153
6798.68018 0.00290135
6799.35010 0.00294117
6800.00000 0.00298053
6800.66992 0.00302035
6801.33008 0.00306018
6802.00000 0.00310001
6802.66016 0.00313964
6803.31982 0.00317928
6803.97998 0.00321914
6804.64990 0.00325902
6805.31006 0.00329867
6805.97021 0.00333857
6806.64014 0.00337826
6807.29980 0.00341817
6807.97021 0.00345808
6808.62012 0.00349759
6809.29004 0.00353751
6809.95020 0.00357747
6810.62012 0.00361737
6811.27979 0.00365726
6811.93994 0.00369671
6812.60986 0.00373661
6813.27002 0.00377654
6813.93994 0.00381625
6814.60010 0.00385616
6815.27002 0.0038961
6815.93018 0.00393584
6816.60010 0.0039758
6817.25977 0.00401532
6817.91992 0.00405527
6818.58984 0.00409523
6819.25000 0.00413523
6819.91992 0.00417524
6820.58008 0.00421522
6821.25000 0.00425526
6821.91016 0.00429552
6822.58008 0.00433555
6823.24023 0.00437586
6823.91016 0.00441615
6824.56982 0.00445623
6825.24023 0.00449657
6825.91016 0.00453691
6826.56982 0.00457681
6827.22998 0.00461716
6827.89990 0.00465756
6828.56982 0.00469794
6829.22998 0.00473835
6829.89990 0.0047783
6830.56006 0.00481866
6831.22998 0.00485902
6831.89014 0.00489919
6832.56006 0.00493956
6833.22998 0.00497974
6833.89014 0.00502014
6834.56006 0.00506057
6835.22021 0.00510056
6835.89014 0.005141
6836.56006 0.00518146
6837.22998 0.00522192
6837.89014 0.00526239
6838.54980 0.00530241
6839.22021 0.00534292
6839.89014 0.00538344
6840.56006 0.00542346
6841.22021 0.00546366
6841.89014 0.00550386
6842.56006 0.00554385
6843.22998 0.00558406
6843.89014 0.00562385
6844.56006 0.00566407
6845.22998 0.00570431
6845.89014 0.00574456
6846.56006 0.0057848
6847.22021 0.00582461
6847.89014 0.00586487
6848.56006 0.00590516
6849.22998 0.00594521
6849.89990 0.00598549
6850.56982 0.00602605
6851.22998 0.00606642
6851.89990 0.00610704
6852.56006 0.00614722
6853.22998 0.00618788
6853.89990 0.00622852
6854.56982 0.00626919
6855.24023 0.00630987
6855.91016 0.00635055
6856.56982 0.00639078
6857.25000 0.00643151
6857.91016 0.00647198
6858.58008 0.00651272
6859.25000 0.00655344
6859.91992 0.006594
6860.58984 0.00663498
6861.25977 0.00667606
6861.91992 0.00671664
6862.58984 0.00675775
6863.25977 0.00679883
6863.93994 0.00683997
6864.60010 0.00688107
6865.27002 0.00692176
6865.93994 0.00696291
6866.60986 0.00700408
6867.27979 0.00704501
6867.95020 0.00708623
6868.62012 0.00712721
6869.29004 0.00716842
6869.95996 0.00720966
6870.62012 0.00725013
6871.29004 0.00729102
6871.97021 0.0073319
6872.64014 0.00737281
6873.31006 0.00741376
6873.97021 0.00745424
6874.64990 0.00749519
6875.31982 0.00753611
6875.97998 0.00757688
6876.66016 0.00761785
6877.33008 0.00765883
6878.00000 0.00769961
6878.66992 0.00774058
6879.33008 0.00778115
6880.00977 0.00782216
6880.68018 0.00792989
6881.35010 0.00822283
6882.02002 0.00851604
6882.68994 0.00880739
6883.35986 0.00909901
6884.02979 0.00939237
6884.70020 0.0096841
6885.37988 0.00997737
6886.04980 0.0102709
6886.72021 0.010563
6887.39014 0.0108566
6888.06006 0.0111505
6888.72998 0.0114411
6889.39990 0.0117349
6890.06982 0.0120359
6890.75000 0.0123925
6891.41992 0.0127492
6892.08984 0.013102
6892.75977 0.0134588
6893.43994 0.0138158
6894.10010 0.0141708
6894.77979 0.0145276
6895.45020 0.014883
6896.12012 0.0152402
6896.79980 0.0155974
6897.45996 0.0159508
6898.14014 0.0163081
6898.81006 0.0166657
6899.47998 0.0170231
6900.16016 0.0174292
6900.83008 0.017987
6901.50000 0.0185509
6902.16992 0.0191149
6902.85010 0.0196761
6903.52002 0.0202403
6904.18994 0.0208049
6904.85986 0.0213664
6905.54004 0.0219312
6906.20996 0.0224895
6906.87988 0.0230545
6907.56006 0.0236199
6908.22998 0.024185
6908.91016 0.0247506
6909.58008 0.0253159
6910.25000 0.0259275
6910.93018 0.0266336
6911.60010 0.0273358
6912.27002 0.0280423
6912.95020 0.0287497
6913.62012 0.0294531
6914.29980 0.0301604
6914.95996 0.0308602
6915.64014 0.0315684
6916.31006 0.0322769
6916.99023 0.0329862
6917.66992 0.0336951
6918.33984 0.0344007
6919.00977 0.0351065
6919.68994 0.0358161
6920.35986 0.036634
6921.04004 0.0375546
6921.70996 0.038476
6922.39014 0.0393915
6923.06006 0.040313
6923.74023 0.041234
6924.41016 0.0421451
6925.08008 0.043067
6925.75977 0.043989
6926.43994 0.0449111
6927.10986 0.0458332
6927.77979 0.0467454
6928.45996 0.0476685
6929.14014 0.048591
6929.81006 0.0495088
6930.49023 0.0506107
6931.16016 0.0517752
6931.83984 0.0529474
6932.52002 0.0541188
6933.18994 0.0552776
6933.85986 0.0564491
6934.54004 0.0576215
6935.22021 0.058794
6935.89990 0.0599666
6936.56982 0.0611257
6937.24023 0.0622991
6937.91992 0.0634718
6938.60010 0.0646387
6939.27002 0.0658124
6939.95020 0.0669854
6940.62988 0.0683435
6941.31006 0.0697252
6941.97998 0.0710904
6942.64990 0.0724718
6943.33008 0.0738544
6944.00977 0.0752373
6944.68994 0.0766196
6945.37012 0.0780031
6946.04004 0.079372
6946.72021 0.0807562
6947.39014 0.0821325
6948.06982 0.0835181
6948.75000 0.0849032
6949.43018 0.0862815
6950.10986 0.0877185
6950.77979 0.0894292
6951.45996 0.09112
6952.14014 0.0928317
6952.81006 0.0945422
6953.49023 0.0962539
6954.16992 0.0979545
6954.85010 0.0996564
6955.52979 0.101368
6956.20996 0.103079
6956.87988 0.104782
6957.56006 0.106494
6958.24023 0.108197
6958.91992 0.109908
6959.60010 0.111621
6960.27002 0.113353
6960.95020 0.115165
6961.62988 0.116977
6962.31006 0.118791
6962.99023 0.120603
6963.66016 0.122396
6964.35010 0.124209
6965.02002 0.126021
6965.70020 0.127825
6966.37988 0.129639
6967.06006 0.131453
6967.74023 0.133255
6968.41992 0.13507
6969.10010 0.136864
6969.77979 0.138679
6970.45996 0.140687
6971.14014 0.142789
6971.81982 0.144891
6972.49023 0.146969
6973.16992 0.149074
6973.85010 0.151177
6974.52979 0.153269
6975.22021 0.155374
6975.89990 0.15748
6976.56982 0.159574
6977.25977 0.16168
6977.93018 0.163764
6978.60986 0.16587
6979.29004 0.167978
6979.97998 0.170086
6980.66016 0.172475
6981.33984 0.174877
6982.02002 0.177252
6982.70020 0.179654
6983.37988 0.182045
6984.06006 0.18445
6984.74023 0.186856
6985.41992 0.189249
6986.10010 0.191656
6986.77979 0.194063
6987.45996 0.196444
6988.14014 0.198855
6988.83008 0.201264
6989.50977 0.203676
6990.18994 0.205534
6990.87012 0.205966
6991.54980 0.206403
6992.22998 0.20684
6992.91016 0.207274
6993.60010 0.207712
6994.27979 0.208147
6994.95996 0.208584
6995.64014 0.209021
6996.31982 0.209454
6997.00000 0.209892
6997.68994 0.210329
6998.37012 0.210767
6999.04980 0.211205
6999.72998 0.211638
7000.41016 0.213643
7001.10010 0.216667
7001.77979 0.219676
7002.45996 0.2227
7003.14990 0.225725
7003.83008 0.228734
7004.50977 0.23176
7005.18994 0.234751
7005.87012 0.237777
7006.56006 0.240803
7007.24023 0.243829
7007.93018 0.246857
7008.60986 0.249883
7009.29004 0.252876
7009.97998 0.255904
7010.66016 0.258315
7011.33984 0.260718
7012.02979 0.263121
7012.70996 0.265512
7013.39014 0.267914
7014.08008 0.270319
7014.75977 0.272696
7015.43994 0.275101
7016.12988 0.277506
7016.81006 0.279911
7017.50000 0.282317
7018.18018 0.284695
7018.85986 0.287102
7019.54980 0.28951
7020.22998 0.292191
7020.91992 0.295455
7021.60010 0.298701
7022.27979 0.301965
7022.97021 0.305229
7023.64990 0.30846
7024.33984 0.311728
7025.02002 0.314996
7025.70996 0.318264
7026.39990 0.321532
7027.06982 0.324764
7027.75977 0.328036
7028.45020 0.331306
7029.12988 0.33456
7029.81982 0.337832
7030.50977 0.340793
7031.18994 0.343625
7031.87988 0.346474
7032.56006 0.349291
7033.24023 0.352142
7033.93018 0.354994
7034.62012 0.357843
7035.29980 0.360696
7035.97998 0.363516
7036.66992 0.36637
7037.35986 0.369223
7038.04004 0.37206
7038.72998 0.374916
7039.41992 0.377771
7040.10010 0.380609
7040.79004 0.383447
7041.47021 0.386254
7042.16016 0.389093
7042.85010 0.391934
7043.54004 0.394773
7044.22021 0.397614
7044.91016 0.400455
7045.58984 0.403263
7046.27979 0.406104
7046.97021 0.408929
7047.64990 0.41177
7048.33984 0.414613
7049.02979 0.417439
7049.72021 0.42028
7050.41016 0.423002
7051.08984 0.425611
7051.77979 0.428252
7052.47021 0.430891
7053.14990 0.43353
7053.83984 0.43617
7054.52979 0.438782
7055.22021 0.441424
7055.89990 0.444065
7056.58984 0.446691
7057.27979 0.449333
7057.97021 0.451961
7058.64990 0.454603
7059.35010 0.457246
7060.02979 0.459873
7060.72021 0.462847
7061.41016 0.46582
7062.10010 0.468792
7062.79004 0.471767
7063.47021 0.474706
7064.16016 0.477681
7064.85010 0.480655
7065.54004 0.483613
7066.22998 0.486586
7066.91992 0.48956
7067.60010 0.492517
7068.29980 0.495492
7068.97998 0.498433
7069.66992 0.501405
7070.35986 0.50429
7071.04980 0.507092
7071.74023 0.509897
7072.43018 0.512684
7073.12012 0.515471
7073.81006 0.518276
7074.49023 0.521066
7075.18994 0.523872
7075.87988 0.526678
7076.56006 0.529468
7077.25977 0.532275
7077.95020 0.535084
7078.62988 0.537858
7079.31982 0.540667
7080.02002 0.54347
7080.70996 0.545994
7081.39990 0.548517
7082.08008 0.551013
7082.77979 0.553537
7083.47021 0.556063
7084.16016 0.558574
7084.85010 0.5611
7085.54004 0.563611
7086.22998 0.56614
7086.91992 0.568667
7087.60986 0.571165
7088.29980 0.573694
7088.99023 0.576222
7089.68994 0.578751
7090.37988 0.580864
7091.06006 0.58261
7091.75977 0.584376
7092.45020 0.586143
7093.14014 0.587898
7093.83008 0.589665
7094.52002 0.591429
7095.20996 0.593186
7095.91016 0.594952
7096.58984 0.596699
7097.29004 0.598464
7097.97998 0.600229
7098.66992 0.601996
7099.37012 0.603762
7100.06006 0.605591
7100.75000 0.608061
7101.43994 0.61056
7102.12988 0.613047
7102.81982 0.615546
7103.52002 0.618047
7104.20996 0.62053
7104.89990 0.62303
7105.58984 0.625502
7106.27979 0.628002
7106.97998 0.630501
7107.66992 0.633002
7108.37012 0.635502
7109.06006 0.637989
7109.75000 0.640475
7110.43994 0.642217
7111.14014 0.643525
7111.83008 0.644841
7112.52002 0.646156
7113.22021 0.647465
7113.91016 0.64878
7114.60986 0.650097
7115.29004 0.651399
7115.99023 0.652715
7116.68994 0.654033
7117.37988 0.65535
7118.08008 0.656667
7118.75977 0.65797
7119.45996 0.659286
7120.14990 0.660784
7120.85010 0.6629
7121.54004 0.665026
7122.22998 0.667143
7122.93018 0.669271
7123.62988 0.671401
7124.31006 0.673505
7125.00977 0.675634
7125.70996 0.677764
7126.39990 0.679894
7127.10010 0.682024
7127.79004 0.684133
7128.49023 0.686263
7129.18018 0.688395
7129.87988 0.690516
7130.56982 0.69185
7131.27002 0.69301
7131.95996 0.694165
7132.66016 0.695325
7133.35010 0.696472
7134.04980 0.697633
7134.74023 0.698793
7135.43994 0.699953
7136.14014 0.701113
7136.83008 0.702274
7137.52002 0.703423
7138.22021 0.704584
7138.91016 0.705738
7139.60986 0.706898
7140.31006 0.70857
7141.00000 0.710867
7141.70020 0.713177
7142.39990 0.715486
7143.08984 0.717772
7143.79004 0.720083
7144.49023 0.722394
7145.18994 0.724704
7145.87988 0.727016
7146.56982 0.7293
7147.27002 0.731611
7147.97021 0.733924
7148.66016 0.736223
7149.35986 0.738535
7150.06006 0.740676
7150.75977 0.741088
7151.45996 0.741499
7152.14990 0.741905
7152.85010 0.742315
7153.54004 0.742727
7154.24023 0.743138
7154.93994 0.743548
7155.62988 0.743954
7156.33008 0.744365
7157.02979 0.744777
7157.72998 0.745184
7158.43018 0.745594
7159.12988 0.746004
7159.81982 0.746413
7160.52002 0.747474
7161.20996 0.748742
7161.91016 0.750025
7162.60986 0.751307
7163.31006 0.752591
7164.00977 0.753874
7164.70996 0.755158
7165.41016 0.756428
7166.10986 0.757712
7166.79980 0.758988
7167.50000 0.760273
7168.20020 0.761557
7168.89990 0.762836
7169.60010 0.764121
7170.29004 0.765647
7170.99023 0.767543
7171.68994 0.769436
7172.39990 0.771332
7173.10010 0.773227
7173.79980 0.775124
7174.49023 0.776997
7175.18994 0.778893
7175.89014 0.780778
7176.58984 0.782674
7177.29004 0.784572
7177.99023 0.786457
7178.68994 0.788354
7179.39014 0.79025
7180.08984 0.792038
7180.79004 0.793218
7181.49023 0.794399
7182.18994 0.79558
7182.89014 0.79676
7183.58984 0.797927
7184.29004 0.799107
7184.99023 0.80029
7185.68994 0.801465
7186.39014 0.802647
7187.08984 0.803822
7187.79004 0.805004
7188.49023 0.806185
7189.18994 0.807355
7189.89014 0.808538
7190.58984 0.810509
7191.29980 0.812623
7192.00000 0.81474
7192.68994 0.81683
7193.39990 0.818945
7194.10010 0.821062
7194.79980 0.823166
7195.50000 0.825283
7196.20996 0.8274
7196.89990 0.829504
7197.60986 0.831622
7198.29980 0.833717
7199.00977 0.835833
7199.70996 0.837952
7200.41016 0.83929
7201.12012 0.840084
7201.81982 0.840877
7202.52002 0.841662
7203.22021 0.842455
7203.91992 0.843243
7204.62012 0.844037
7205.33008 0.844831
7206.02979 0.84562
7206.72998 0.846415
7207.43994 0.847209
7208.14014 0.847995
7208.83984 0.848789
7209.54004 0.849582
7210.25000 0.850439
7210.95020 0.851411
7211.64990 0.852371
7212.35010 0.853342
7213.06006 0.854314
7213.75977 0.855278
7214.47021 0.856249
7215.16992 0.857214
7215.87012 0.858185
7216.58008 0.859155
7217.27002 0.860114
7217.97998 0.861085
7218.68018 0.862056
7219.39014 0.863026
7220.10010 0.863966
7220.79004 0.86471
7221.50000 0.865461
7222.20020 0.866212
7222.91016 0.866958
7223.60986 0.867709
7224.31982 0.86846
7225.02002 0.869205
7225.72998 0.869956
7226.41992 0.870699
7227.12988 0.871449
7227.83984 0.872199
7228.54004 0.87295
7229.25000 0.873701
7229.95020 0.874443
7230.64990 0.875913
7231.35986 0.877442
7232.06006 0.878963
7232.77002 0.880492
7233.47998 0.882022
7234.18018 0.883541
7234.89014 0.885071
7235.58984 0.886585
7236.29004 0.888115
7237.00000 0.889644
7237.70996 0.891174
7238.41016 0.892704
7239.12012 0.894235
7239.81982 0.895748
7240.52979 0.896292
7241.22998 0.896502
7241.93994 0.896715
7242.64990 0.896928
7243.35010 0.897139
7244.06006 0.897351
7244.77002 0.897563
7245.47021 0.897773
7246.18018 0.897987
7246.87988 0.898199
7247.58984 0.898412
7248.29980 0.898624
7249.00000 0.898833
7249.70996 0.899046
7250.41992 0.900396
7251.12012 0.902527
7251.83008 0.90467
7252.52979 0.906801
7253.24023 0.908945
7253.95020 0.911088
7254.64990 0.913207
7255.35986 0.91535
7256.06982 0.917494
7256.77979 0.919636
7257.49023 0.921779
7258.18994 0.923897
7258.89990 0.926041
7259.60986 0.928184
7260.31006 0.929198
7261.02002 0.928826
7261.72998 0.928457
7262.43994 0.928089
7263.14990 0.927719
7263.85010 0.927354
7264.56006 0.926984
7265.27002 0.926614
7265.97998 0.926246
7266.68994 0.925873
7267.39990 0.925504
7268.10010 0.925137
7268.81006 0.924768
7269.52002 0.924399
7270.22998 0.924182
7270.93994 0.924288
7271.64990 0.924392
7272.35986 0.924498
7273.06982 0.924605
7273.77002 0.924708
7274.47998 0.924812
7275.18994 0.924917
7275.89990 0.925022
7276.60986 0.925127
7277.31982 0.925231
7278.02979 0.925336
7278.74023 0.925443
7279.45020 0.925548
7280.16016 0.9257
7280.87012 0.926016
7281.58008 0.926333
7282.29004 0.92665
7282.99023 0.926964
7283.70996 0.927282
7284.41992 0.927599
7285.12988 0.927916
7285.83984 0.928234
7286.54980 0.928548
7287.25977 0.928865
7287.97021 0.929183
7288.68018 0.929497
7289.39014 0.929815
7290.10010 0.930113
7290.81006 0.930288
7291.52002 0.930465
7292.22998 0.93064
7292.93994 0.930817
7293.64990 0.930995
7294.35986 0.931172
7295.08008 0.931348
7295.79004 0.931524
7296.50000 0.931699
7297.20996 0.931875
7297.91992 0.932051
7298.62988 0.932228
7299.35010 0.932405
7300.04980 0.932555
7300.77002 0.932386
7301.47021 0.932217
7302.18994 0.932046
7302.89990 0.931876
7303.60986 0.931706
7304.33008 0.931536
7305.04004 0.931365
7305.75000 0.931196
7306.45996 0.931026
7307.16992 0.930857
7307.89014 0.930686
7308.60010 0.930515
7309.31006 0.930345
7310.02002 0.930215
7310.74023 0.931226
7311.43994 0.932226
7312.16016 0.933237
7312.87012 0.934248
7313.58984 0.935258
7314.29980 0.93627
7315.00977 0.937271
7315.72998 0.938283
7316.43994 0.939294
7317.14990 0.9403
7317.85986 0.941312
7318.58008 0.942317
7319.29004 0.943328
7320.00977 0.944322
7320.70996 0.943609
7321.43018 0.942887
7322.14990 0.942164
7322.85986 0.941441
7323.58008 0.940718
7324.27979 0.940004
7325.00000 0.939281
7325.72021 0.938557
7326.43018 0.937838
7327.14014 0.937115
7327.85986 0.93639
7328.56982 0.935672
7329.29004 0.934948
7330.00000 0.934232
7330.70996 0.935586
7331.43018 0.936954
7332.14990 0.938323
7332.85986 0.939689
7333.58008 0.941055
7334.29004 0.942406
7335.00000 0.943774
7335.72021 0.945133
7336.43018 0.946501
7337.14990 0.94787
7337.85986 0.949228
7338.58008 0.950595
7339.29980 0.951962
7340.00977 0.953299
7340.72021 0.952953
7341.43994 0.952609
7342.16016 0.952265
7342.87988 0.951918
7343.58984 0.951578
7344.29980 0.951234
7345.02002 0.950887
7345.72998 0.950545
7346.45020 0.950201
7347.16992 0.949857
7347.87988 0.949511
7348.60010 0.949166
7349.31006 0.948825
7350.02979 0.948487
7350.75000 0.948253
7351.47021 0.948019
7352.18994 0.947785
7352.89990 0.947556
7353.60986 0.947323
7354.33008 0.947089
7355.04980 0.946857
7355.77002 0.946624
7356.47998 0.946391
7357.20020 0.946159
7357.91992 0.945926
7358.62988 0.945694
7359.35010 0.94546
7360.06982 0.945339
7360.79004 0.946292
7361.50977 0.947244
7362.22998 0.948196
7362.93994 0.949138
7363.66016 0.950091
7364.37012 0.951037
7365.08984 0.951988
7365.81006 0.952942
7366.52979 0.95389
7367.25000 0.954842
7367.95996 0.955784
7368.68018 0.956737
7369.39990 0.95769
7370.12012 0.958239
7370.83984 0.956771
7371.56006 0.955304
7372.27002 0.953853
7372.99023 0.952386
7373.70996 0.950925
7374.43018 0.949456
7375.14990 0.947988
7375.87012 0.946527
7376.58984 0.945058
7377.31006 0.943589
7378.02002 0.942136
7378.74023 0.940667
7379.45996 0.939197
7380.18994 0.93886
7380.91016 0.941802
7381.62012 0.944712
7382.33984 0.947652
7383.06006 0.950593
7383.77979 0.953517
7384.50000 0.956459
7385.22021 0.959384
7385.93994 0.962323
7386.66016 0.965261
7387.37988 0.968167
7388.10010 0.971105
7388.81982 0.974043
7389.54004 0.97698
7390.25977 0.978465
7390.97998 0.977441
7391.70020 0.976404
7392.41992 0.975368
7393.14014 0.974337
7393.85986 0.973299
7394.58984 0.972261
7395.31006 0.97123
7396.02979 0.970192
7396.74023 0.969165
7397.47021 0.968126
7398.18994 0.967088
7398.91016 0.966047
7399.62988 0.965008
7400.35986 0.964356
7401.06982 0.964104
7401.79980 0.963848
7402.52002 0.963594
7403.24023 0.96334
7403.95996 0.963085
7404.68018 0.96283
7405.39990 0.962575
7406.12988 0.96232
7406.83984 0.962069
7407.56982 0.961814
7408.29004 0.961558
7409.02002 0.961303
7409.74023 0.961048
7410.45996 0.960926
7411.18018 0.960877
7411.89990 0.960829
7412.62012 0.96078
7413.35010 0.960731
7414.06982 0.960683
7414.79004 0.960633
7415.52002 0.960585
7416.22998 0.960537
7416.95996 0.960488
7417.68018 0.960438
7418.41016 0.960389
7419.12988 0.96034
7419.85010 0.960292
7420.58008 0.960786
7421.29980 0.961421
7422.02002 0.962052
7422.75000 0.962687
7423.47021 0.963321
7424.18994 0.963952
7424.91992 0.964584
7425.64014 0.965212
7426.35986 0.965847
7427.08984 0.966479
7427.81006 0.967113
7428.54004 0.967748
7429.25977 0.968378
7429.97998 0.969008
7430.70996 0.969823
7431.43018 0.970638
7432.16016 0.971457
7432.89014 0.972278
7433.60986 0.973092
7434.33008 0.97391
7435.04980 0.97472
7435.77979 0.97554
7436.50977 0.97636
7437.22998 0.977178
7437.95996 0.977997
7438.68994 0.978815
7439.39990 0.979625
7440.12988 0.980215
7440.85010 0.97977
7441.58008 0.979323
7442.31006 0.978875
7443.02979 0.978429
7443.75977 0.977981
7444.49023 0.977533
7445.20996 0.977091
7445.93018 0.976645
7446.66016 0.976195
7447.39014 0.975747
7448.12012 0.9753
7448.83984 0.974858
7449.56006 0.974411
7450.29004 0.974921
7451.02002 0.976845
7451.74023 0.978778
7452.47021 0.980701
7453.20020 0.982636
7453.93018 0.984571
7454.64990 0.986484
7455.37012 0.988419
7456.10010 0.990353
7456.83008 0.992288
7457.56006 0.994221
7458.27979 0.996133
