# %ECSV 0.9
# ---
# datatype:
# - {name: wavelength, unit: Angstrom, datatype: float32}
# - {name: response, datatype: float32}
# meta: !!omap
# - {band_name: F150W}
# - {group_name: NICMOS3}
wavelength response
9208.34961 0.0
10231.50000 0.000402
10232.36035 0.000407
10233.23047 0.000412
10234.09961 0.000417
10234.96973 0.000422
10235.83008 0.000423
10236.70020 0.000424
10237.57031 0.000425
10238.44043 0.000426
10239.30957 0.000426
10240.16992 0.000428
10241.04004 0.000432
10241.91016 0.000435
10242.78027 0.000439
10243.65039 0.000443
10244.51953 0.000446
10245.38965 0.00045
10246.25000 0.000453
10247.12012 0.000457
10247.99023 0.000461
10248.86035 0.000464
10249.73047 0.000468
10250.59961 0.000469
10251.46973 0.00047
10252.33984 0.00047
10253.20996 0.00047
10254.08008 0.00047
10254.95020 0.000471
10255.82031 0.000473
10256.69043 0.000476
10257.55957 0.000478
10258.42969 0.000481
10259.29980 0.000484
10260.16992 0.000487
10261.04004 0.000496
10261.91016 0.000504
10262.78027 0.000512
10263.65039 0.000521
10264.51953 0.000529
10265.38965 0.000532
10266.25977 0.000529
10267.12988 0.000526
10268.00000 0.000522
10268.87012 0.000519
10269.74023 0.000516
10270.61035 0.000515
10271.48047 0.000517
10272.34961 0.000518
10273.21973 0.000519
10274.08984 0.00052
10274.96973 0.000521
10275.83984 0.000528
10276.70996 0.000536
10277.58008 0.000543
10278.45020 0.00055
10279.32031 0.000558
10280.20020 0.000563
10281.07031 0.000562
10281.94043 0.000561
10282.80957 0.00056
10283.67969 0.000558
10284.54980 0.000557
10285.42969 0.000558
10286.29980 0.000562
10287.16992 0.000566
10288.04004 0.000569
10288.91992 0.000573
10289.79004 0.000577
10290.66016 0.000581
10291.53027 0.000585
10292.41016 0.00059
10293.28027 0.000594
10294.15039 0.000598
10295.01953 0.000602
10295.90039 0.000604
10296.76953 0.000606
10297.63965 0.000607
10298.51953 0.000609
10299.38965 0.00061
10300.25977 0.000612
10301.13965 0.000613
10302.00977 0.000613
10302.87988 0.000614
10303.75977 0.000615
10304.62988 0.000616
10305.50000 0.000618
10306.37988 0.000622
10307.25000 0.000626
10308.12988 0.000629
10309.00000 0.000633
10309.87012 0.000637
10310.75000 0.000636
10311.62012 0.000635
10312.50000 0.000634
10313.37012 0.000633
10314.25000 0.000632
10315.12012 0.000632
10316.00000 0.000636
10316.87012 0.000639
10317.75000 0.000643
10318.62012 0.000646
10319.50000 0.00065
10320.37012 0.000653
10321.25000 0.000654
10322.12012 0.000655
10323.00000 0.000656
10323.87012 0.000657
10324.75000 0.000658
10325.62012 0.000663
10326.50000 0.000669
10327.37988 0.000676
10328.25000 0.000682
10329.12988 0.000689
10330.00000 0.000695
10330.87988 0.000695
10331.75000 0.000694
10332.62988 0.000693
10333.50977 0.000692
10334.37988 0.000691
10335.25977 0.000691
10336.13965 0.000692
10337.00977 0.000694
10337.88965 0.000695
10338.75977 0.000697
10339.63965 0.000698
10340.51953 0.000698
10341.40039 0.000698
10342.26953 0.000698
10343.15039 0.000698
10344.03027 0.000698
10344.90039 0.000698
10345.78027 0.000698
10346.66016 0.000699
10347.54004 0.000699
10348.41016 0.000699
10349.29004 0.0007
10350.16992 0.000701
10351.04980 0.000707
10351.91992 0.000712
10352.79980 0.000717
10353.67969 0.000722
10354.55957 0.000728
10355.42969 0.000731
10356.30957 0.000731
10357.19043 0.000731
10358.07031 0.000731
10358.95020 0.000731
10359.83008 0.000732
10360.70996 0.000733
10361.58008 0.000734
10362.45996 0.000736
10363.33984 0.000737
10364.21973 0.000739
10365.09961 0.00074
10365.98047 0.000742
10366.86035 0.000744
10367.74023 0.000746
10368.61035 0.000747
10369.49023 0.000749
10370.37012 0.000751
10371.25000 0.000753
10372.12988 0.000755
10373.00977 0.000757
10373.88965 0.000758
10374.76953 0.00076
10375.65039 0.000762
10376.53027 0.000764
10377.41016 0.000765
10378.29004 0.000767
10379.16992 0.000769
10380.04980 0.00077
10380.92969 0.000773
10381.80957 0.000775
10382.69043 0.000778
10383.57031 0.00078
10384.45020 0.000783
10385.33008 0.000785
10386.20996 0.000787
10387.08984 0.00079
10387.96973 0.000792
10388.86035 0.000794
10389.74023 0.000797
10390.62012 0.000802
10391.50000 0.000808
10392.37988 0.000814
10393.25977 0.000821
10394.13965 0.000827
10395.01953 0.000833
10395.91016 0.000834
10396.79004 0.000835
10397.66992 0.000835
10398.54980 0.000836
10399.42969 0.000837
10400.30957 0.000838
10401.20020 0.000841
10402.08008 0.000843
10402.95996 0.000846
10403.83984 0.000848
10404.71973 0.00085
10405.61035 0.000852
10406.49023 0.000854
10407.37012 0.000855
10408.25000 0.000856
10409.13965 0.000858
10410.01953 0.000859
10410.90039 0.000861
10411.78027 0.000864
10412.66992 0.000866
10413.54980 0.000868
10414.42969 0.00087
10415.32031 0.000873
10416.20020 0.000876
10417.08008 0.000879
10417.96973 0.000882
10418.84961 0.000885
10419.73047 0.000888
10420.62012 0.000892
10421.50000 0.000897
10422.37988 0.000901
10423.26953 0.000906
10424.15039 0.000911
10425.04004 0.000915
10425.91992 0.000917
10426.79980 0.000919
10427.69043 0.000921
10428.57031 0.000923
10429.45996 0.000925
10430.33984 0.000928
10431.23047 0.00093
10432.11035 0.000933
10433.00000 0.000935
10433.87988 0.000938
10434.75977 0.000941
10435.65039 0.000947
10436.53027 0.000954
10437.41992 0.000962
10438.29980 0.000969
10439.19043 0.000977
10440.07031 0.000984
10440.95996 0.000989
10441.83984 0.000993
10442.73047 0.000998
10443.62012 0.001002
10444.50000 0.001007
10445.38965 0.001009
10446.26953 0.001008
10447.16016 0.001007
10448.04004 0.001006
10448.92969 0.001005
10449.82031 0.001004
10450.70020 0.001011
10451.58984 0.00102
10452.48047 0.001029
10453.36035 0.001038
10454.25000 0.001047
10455.12988 0.001055
10456.01953 0.001061
10456.91016 0.001066
10457.79004 0.001071
10458.67969 0.001077
10459.57031 0.001082
10460.45996 0.001087
10461.33984 0.00109
10462.23047 0.001093
10463.12012 0.001096
10464.00000 0.0011
10464.88965 0.001103
10465.78027 0.00111
10466.66992 0.001117
10467.54980 0.001125
10468.44043 0.001132
10469.33008 0.001139
10470.21973 0.001146
10471.09961 0.00115
10471.99023 0.001154
10472.87988 0.001158
10473.76953 0.001162
10474.66016 0.001166
10475.54004 0.001172
10476.42969 0.001179
10477.32031 0.001187
10478.20996 0.001194
10479.09961 0.001202
10479.99023 0.001209
10480.87988 0.001218
10481.75977 0.001226
10482.65039 0.001235
10483.54004 0.001244
10484.42969 0.001252
10485.32031 0.001261
10486.20996 0.00127
10487.09961 0.001279
10487.99023 0.001288
10488.87988 0.001297
10489.76953 0.001306
10490.66016 0.001313
10491.54980 0.001319
10492.44043 0.001326
10493.33008 0.001332
10494.20996 0.001339
10495.09961 0.001346
10496.00000 0.001355
10496.87988 0.001364
10497.76953 0.001374
10498.66992 0.001383
10499.55957 0.001393
10500.45020 0.001401
10501.33984 0.001408
10502.23047 0.001415
10503.12012 0.001422
10504.00977 0.001429
10504.90039 0.001437
10505.79004 0.00145
10506.67969 0.001464
10507.57031 0.001478
10508.45996 0.001492
10509.34961 0.001506
10510.24023 0.00152
10511.13965 0.001531
10512.03027 0.001542
10512.91992 0.001553
10513.80957 0.001564
10514.70020 0.001575
10515.58984 0.001588
10516.48047 0.001601
10517.37988 0.001614
10518.26953 0.001627
10519.16016 0.00164
10520.04980 0.001653
10520.94043 0.001667
10521.83984 0.00168
10522.73047 0.001693
10523.62012 0.001706
10524.50977 0.00172
10525.41016 0.001732
10526.29980 0.001743
10527.19043 0.001754
10528.08008 0.001766
10528.98047 0.001777
10529.87012 0.001788
10530.75977 0.001804
10531.66016 0.00182
10532.54980 0.001836
10533.44043 0.001853
10534.33008 0.001869
10535.23047 0.001884
10536.12012 0.001894
10537.00977 0.001904
10537.91016 0.001914
10538.79980 0.001924
10539.70020 0.001934
10540.58984 0.001949
10541.48047 0.001968
10542.37988 0.001987
10543.26953 0.002005
10544.16992 0.002024
10545.05957 0.002043
10545.95020 0.002062
10546.84961 0.002081
10547.74023 0.0021
10548.63965 0.002119
10549.53027 0.002139
10550.41992 0.002159
10551.32031 0.00218
10552.20996 0.002201
10553.11035 0.002222
10554.00000 0.002243
10554.90039 0.002264
10555.79004 0.002284
10556.69043 0.002304
10557.58008 0.002324
10558.48047 0.002344
10559.37988 0.002364
10560.26953 0.002385
10561.16992 0.002407
10562.05957 0.002429
10562.95996 0.002451
10563.84961 0.002473
10564.75000 0.002495
10565.63965 0.002517
10566.54004 0.002538
10567.44043 0.00256
10568.33008 0.002582
10569.23047 0.002604
10570.12988 0.002626
10571.01953 0.002651
10571.91992 0.002675
10572.80957 0.0027
10573.70996 0.002725
10574.61035 0.002749
10575.50000 0.002774
10576.40039 0.002799
10577.29980 0.002824
10578.19043 0.002849
10579.08984 0.002875
10579.99023 0.0029
10580.88965 0.002931
10581.78027 0.002962
10582.67969 0.002993
10583.58008 0.003024
10584.46973 0.003055
10585.37012 0.003086
10586.26953 0.003115
10587.16992 0.003145
10588.07031 0.003175
10588.95996 0.003205
10589.86035 0.003234
10590.75977 0.003264
10591.66016 0.003294
10592.55957 0.003323
10593.45020 0.003353
10594.34961 0.003382
10595.25000 0.003414
10596.15039 0.003451
10597.04980 0.003488
10597.95020 0.003526
10598.83984 0.003563
10599.74023 0.0036
10600.63965 0.003632
10601.54004 0.003661
10602.44043 0.00369
10603.33984 0.00372
10604.24023 0.003749
10605.13965 0.00378
10606.04004 0.003818
10606.94043 0.003857
10607.83984 0.003895
10608.74023 0.003934
10609.62988 0.003972
10610.53027 0.004011
10611.42969 0.00405
10612.33008 0.004088
10613.23047 0.004127
10614.12988 0.004166
10615.03027 0.004205
10615.92969 0.004244
10616.83008 0.004284
10617.73047 0.004323
10618.62988 0.004363
10619.54004 0.004403
10620.44043 0.00444
10621.33984 0.004476
10622.24023 0.004511
10623.13965 0.004547
10624.04004 0.004582
10624.94043 0.004617
10625.83984 0.004661
10626.74023 0.004705
10627.63965 0.004749
10628.54004 0.004793
10629.45020 0.004837
10630.34961 0.004882
10631.25000 0.004928
10632.15039 0.004973
10633.04980 0.005019
10633.95020 0.005064
10634.84961 0.00511
10635.75977 0.00515
10636.66016 0.005189
10637.55957 0.005228
10638.45996 0.005267
10639.36035 0.005306
10640.26953 0.005346
10641.16992 0.005391
10642.07031 0.005435
10642.96973 0.00548
10643.87988 0.005525
10644.78027 0.005569
10645.67969 0.005613
10646.58008 0.005656
10647.49023 0.0057
10648.38965 0.005743
10649.29004 0.005786
10650.20020 0.00583
10651.09961 0.005876
10652.00000 0.005921
10652.91016 0.005967
10653.80957 0.006012
10654.70996 0.006058
10655.62012 0.006101
10656.51953 0.006142
10657.41992 0.006184
10658.33008 0.006226
10659.23047 0.006267
10660.12988 0.006309
10661.04004 0.006349
10661.94043 0.00639
10662.84961 0.00643
10663.75000 0.006471
10664.65039 0.006511
10665.55957 0.006551
10666.45996 0.00659
10667.37012 0.00663
10668.26953 0.006669
10669.17969 0.006708
10670.08008 0.006748
10670.99023 0.00679
10671.88965 0.006832
10672.79980 0.006874
10673.70020 0.006917
10674.61035 0.006959
10675.50977 0.006998
10676.41992 0.007035
10677.32031 0.007072
10678.23047 0.007109
10679.12988 0.007146
10680.04004 0.007184
10680.94043 0.007222
10681.84961 0.007261
10682.75977 0.0073
10683.66016 0.007339
10684.57031 0.007377
10685.46973 0.007414
10686.37988 0.007449
10687.29004 0.007485
10688.19043 0.00752
10689.09961 0.007555
10690.00000 0.00759
10690.91016 0.007623
10691.82031 0.007656
10692.71973 0.007689
10693.62988 0.007722
10694.54004 0.007755
10695.45020 0.007788
10696.34961 0.007821
10697.25977 0.007854
10698.16992 0.007886
10699.07031 0.007919
10699.98047 0.007952
10700.88965 0.00798
10701.79004 0.008009
10702.70020 0.008037
10703.61035 0.008065
10704.51953 0.008094
10705.42969 0.008121
10706.33008 0.008148
10707.24023 0.008176
10708.15039 0.008203
10709.05957 0.00823
10709.96973 0.008257
10710.87012 0.008285
10711.78027 0.008314
10712.69043 0.008342
10713.59961 0.00837
10714.50977 0.008399
10715.41992 0.008424
10716.32031 0.008445
10717.23047 0.008466
10718.13965 0.008487
10719.04980 0.008508
10719.95996 0.008529
10720.87012 0.008558
10721.78027 0.008586
10722.69043 0.008615
10723.59961 0.008644
10724.50977 0.008673
10725.41992 0.008698
10726.32031 0.008719
10727.23047 0.00874
10728.13965 0.008761
10729.04980 0.008782
10729.95996 0.008803
10730.87012 0.008825
10731.78027 0.008847
10732.69043 0.008869
10733.59961 0.008892
10734.50977 0.008914
10735.41992 0.008935
10736.33008 0.008955
10737.24023 0.008976
10738.15039 0.008996
10739.07031 0.009016
10739.98047 0.009037
10740.88965 0.009058
10741.79980 0.00908
10742.70996 0.009102
10743.62012 0.009124
10744.53027 0.009146
10745.44043 0.009168
10746.34961 0.00919
10747.25977 0.009211
10748.16992 0.009232
10749.08984 0.009254
10750.00000 0.009275
10750.91016 0.009296
10751.82031 0.009317
10752.73047 0.009338
10753.63965 0.009359
10754.55957 0.00938
10755.46973 0.009401
10756.37988 0.009422
10757.29004 0.009443
10758.20996 0.009465
10759.12012 0.009486
10760.03027 0.009507
10760.94043 0.009528
10761.84961 0.009548
10762.76953 0.009569
10763.67969 0.009589
10764.58984 0.009609
10765.50977 0.009632
10766.41992 0.009656
10767.33008 0.009681
10768.24023 0.009705
10769.16016 0.00973
10770.07031 0.009755
10770.98047 0.009785
10771.90039 0.009816
10772.80957 0.009846
10773.71973 0.009877
10774.63965 0.009907
10775.54980 0.009933
10776.45996 0.009957
10777.37988 0.00998
10778.29004 0.010003
10779.20996 0.010027
10780.12012 0.01005
10781.04004 0.010076
10781.95020 0.010102
10782.86035 0.010128
10783.78027 0.010154
10784.69043 0.01018
10785.61035 0.010209
10786.51953 0.01024
10787.44043 0.010271
10788.34961 0.010303
10789.26953 0.010334
10790.17969 0.010365
10791.09961 0.010397
10792.00977 0.010429
10792.92969 0.010461
10793.83984 0.010493
10794.75977 0.010526
10795.66992 0.010559
10796.58984 0.010593
10797.50000 0.010626
10798.41992 0.01066
10799.33008 0.010694
10800.25000 0.010729
10801.16992 0.010768
10802.08008 0.010807
10803.00000 0.010845
10803.91016 0.010884
10804.83008 0.010923
10805.75000 0.010965
10806.66016 0.011008
10807.58008 0.011051
10808.50000 0.011093
10809.41016 0.011136
10810.33008 0.011179
10811.25000 0.011221
10812.16016 0.011262
10813.08008 0.011304
10814.00000 0.011346
10814.91016 0.011388
10815.83008 0.011432
10816.75000 0.011476
10817.66016 0.01152
10818.58008 0.011564
10819.50000 0.011608
10820.41992 0.011658
10821.33008 0.011714
10822.25000 0.011771
10823.16992 0.011827
10824.08984 0.011883
10825.00000 0.01194
10825.91992 0.011994
10826.83984 0.012047
10827.75977 0.012101
10828.67969 0.012155
10829.58984 0.012208
10830.50977 0.012266
10831.42969 0.012326
10832.34961 0.012386
10833.26953 0.012446
10834.19043 0.012506
10835.11035 0.012567
10836.01953 0.012637
10836.94043 0.012707
10837.86035 0.012777
10838.78027 0.012847
10839.70020 0.012917
10840.62012 0.012984
10841.54004 0.01305
10842.45996 0.013115
10843.37988 0.013181
10844.29980 0.013246
10845.21973 0.013315
10846.13965 0.013395
10847.05957 0.013475
10847.98047 0.013554
10848.90039 0.013634
10849.82031 0.013713
10850.74023 0.013792
10851.66016 0.01387
10852.58008 0.013948
10853.50000 0.014026
10854.41992 0.014104
10855.33984 0.014185
10856.25977 0.014271
10857.17969 0.014356
10858.09961 0.014442
10859.01953 0.014528
10859.94043 0.014614
10860.86035 0.014713
10861.78027 0.014814
10862.70020 0.014914
10863.62012 0.015015
10864.54980 0.015115
10865.46973 0.015219
10866.38965 0.015327
10867.30957 0.015434
10868.23047 0.015541
10869.15039 0.015649
10870.08008 0.015757
10871.00000 0.015872
10871.91992 0.015987
10872.83984 0.016102
10873.75977 0.016218
10874.67969 0.016333
10875.61035 0.016451
10876.53027 0.016571
10877.45020 0.016691
10878.37012 0.016811
10879.29980 0.016931
10880.21973 0.017053
10881.13965 0.017179
10882.05957 0.017305
10882.99023 0.017431
10883.91016 0.017557
10884.83008 0.017684
10885.75000 0.017821
10886.67969 0.01796
10887.59961 0.0181
10888.51953 0.018239
10889.45020 0.018379
10890.37012 0.018523
10891.29004 0.018677
10892.21973 0.01883
10893.13965 0.018983
10894.07031 0.019136
10894.99023 0.01929
10895.91016 0.01946
10896.83984 0.019631
10897.75977 0.019801
10898.69043 0.019972
10899.61035 0.020142
10900.53027 0.02032
10901.45996 0.020502
10902.37988 0.020684
10903.30957 0.020866
10904.23047 0.021049
10905.16016 0.021232
10906.08008 0.021423
10907.00977 0.021614
10907.92969 0.021804
10908.86035 0.021995
10909.78027 0.022186
10910.70996 0.022387
10911.62988 0.022592
10912.55957 0.022796
10913.48047 0.023001
10914.41016 0.023206
10915.33008 0.023413
10916.25977 0.023626
10917.17969 0.023839
10918.11035 0.024052
10919.04004 0.024265
10919.95996 0.024479
10920.88965 0.024718
10921.80957 0.024959
10922.74023 0.0252
10923.66992 0.025441
10924.58984 0.025682
10925.51953 0.025938
10926.45020 0.026205
10927.37012 0.026473
10928.29980 0.02674
10929.21973 0.027008
10930.15039 0.027278
10931.08008 0.02756
10932.00977 0.027842
10932.92969 0.028124
10933.86035 0.028406
10934.79004 0.028689
10935.70996 0.02899
10936.63965 0.029297
10937.57031 0.029604
10938.50000 0.029912
10939.41992 0.030219
10940.34961 0.030528
10941.28027 0.030841
10942.20996 0.031153
10943.12988 0.031465
10944.05957 0.031777
10944.99023 0.032089
10945.91992 0.032429
10946.84961 0.032769
10947.78027 0.033109
10948.70020 0.033449
10949.62988 0.033789
10950.55957 0.034141
10951.49023 0.034501
10952.41992 0.034862
10953.34961 0.035222
10954.28027 0.035582
10955.20020 0.035951
10956.12988 0.036352
10957.05957 0.036752
10957.99023 0.037152
10958.91992 0.037553
10959.84961 0.037953
10960.78027 0.038381
10961.70996 0.038814
10962.63965 0.039247
10963.57031 0.039679
10964.50000 0.040113
10965.42969 0.040552
10966.36035 0.040998
10967.29004 0.041443
10968.21973 0.041889
10969.15039 0.042336
10970.08008 0.042783
10971.00977 0.043245
10971.94043 0.043708
10972.87012 0.044171
10973.79980 0.044633
10974.73047 0.045096
10975.66016 0.045569
10976.58984 0.046045
10977.51953 0.046522
10978.45020 0.046998
10979.37988 0.047475
10980.30957 0.047967
10981.25000 0.048489
10982.17969 0.049011
10983.11035 0.049533
10984.04004 0.050055
10984.96973 0.050577
10985.90039 0.051125
10986.83008 0.051674
10987.76953 0.052223
10988.70020 0.052772
10989.62988 0.053321
10990.55957 0.053889
10991.49023 0.05447
10992.41992 0.055051
10993.36035 0.055631
10994.29004 0.056212
10995.21973 0.056798
10996.15039 0.057399
10997.08984 0.058
10998.01953 0.058602
10998.95020 0.059203
10999.87988 0.059805
11000.82031 0.060401
11001.75000 0.060998
11002.67969 0.061594
11003.62012 0.06219
11004.54980 0.062787
11005.48047 0.063385
11006.41992 0.063986
11007.34961 0.064587
11008.28027 0.065187
11009.20996 0.065789
11010.15039 0.066394
11011.08008 0.067018
11012.01953 0.067643
11012.95020 0.068269
11013.87988 0.068894
11014.82031 0.06952
11015.75000 0.070142
11016.69043 0.070762
11017.62012 0.071384
11018.54980 0.072005
11019.49023 0.072626
11020.41992 0.073254
11021.36035 0.073888
11022.29004 0.074523
11023.23047 0.075158
11024.16016 0.075793
11025.09961 0.076431
11026.03027 0.07708
11026.96973 0.07773
11027.90039 0.07838
11028.83984 0.07903
11029.76953 0.079681
11030.70996 0.080287
11031.63965 0.080878
11032.58008 0.08147
11033.50977 0.082061
11034.45020 0.082653
11035.37988 0.083233
11036.32031 0.083797
11037.25977 0.084361
11038.19043 0.084926
11039.12988 0.08549
11040.05957 0.086054
11041.00000 0.086602
11041.94043 0.08715
11042.87012 0.087698
11043.80957 0.088247
11044.75000 0.088796
11045.67969 0.089328
11046.62012 0.089854
11047.55957 0.09038
11048.49023 0.090906
11049.42969 0.091433
11050.37012 0.091945
11051.29980 0.092435
11052.24023 0.092924
11053.17969 0.093414
11054.12012 0.093904
11055.04980 0.094393
11055.99023 0.094855
11056.92969 0.095317
11057.87012 0.095779
11058.79980 0.096241
11059.74023 0.096703
11060.67969 0.097132
11061.62012 0.097547
11062.54980 0.097963
11063.49023 0.098379
11064.42969 0.098795
11065.37012 0.099185
11066.30957 0.099537
11067.25000 0.099889
11068.17969 0.100241
11069.12012 0.100593
11070.05957 0.100943
11071.00000 0.101254
11071.94043 0.101566
11072.87988 0.101878
11073.82031 0.10219
11074.75977 0.102502
11075.69043 0.102782
11076.62988 0.103052
11077.57031 0.103321
11078.50977 0.103591
11079.45020 0.103861
11080.38965 0.104117
11081.33008 0.104354
11082.26953 0.104591
11083.20996 0.104828
11084.15039 0.105065
11085.08984 0.105298
