# %ECSV 0.9
# ---
# datatype:
# - {name: wavelength, unit: Angstrom, datatype: float32}
# - {name: response, datatype: float32}
# meta: !!omap
# - {band_name: F175W}
# - {group_name: NICMOS3}
wavelength response
10422.59375 0.0
11580.66016 0.0004
11581.71973 0.000402
11582.78027 0.000404
11583.83984 0.000406
11584.91016 0.000408
11585.96973 0.000413
11587.03027 0.000418
11588.08984 0.000423
11589.16016 0.000428
11590.21973 0.000432
11591.28027 0.000433
11592.33984 0.000434
11593.41016 0.000435
11594.46973 0.000436
11595.53027 0.000439
11596.59961 0.000443
11597.66016 0.000447
11598.71973 0.000452
11599.79004 0.000456
11600.84961 0.000461
11601.91016 0.000466
11602.98047 0.00047
11604.04004 0.000475
11605.11035 0.00048
11606.16992 0.000485
11607.23047 0.00049
11608.29980 0.000494
11609.36035 0.000499
11610.42969 0.000503
11611.49023 0.000505
11612.55957 0.000508
11613.62012 0.000511
11614.69043 0.000513
11615.75000 0.000518
11616.82031 0.000524
11617.87988 0.00053
11618.95020 0.000536
11620.00977 0.000542
11621.08008 0.000545
11622.13965 0.000548
11623.20996 0.000551
11624.28027 0.000555
11625.33984 0.000559
11626.41016 0.000567
11627.46973 0.000575
11628.54004 0.000583
11629.61035 0.000591
11630.66992 0.000597
11631.74023 0.000604
11632.79980 0.00061
11633.87012 0.000616
11634.94043 0.000622
11636.00000 0.000626
11637.07031 0.000631
11638.13965 0.000636
11639.20996 0.00064
11640.26953 0.000645
11641.33984 0.00065
11642.41016 0.000654
11643.48047 0.000659
11644.54004 0.000664
11645.61035 0.000671
11646.67969 0.00068
11647.75000 0.00069
11648.80957 0.000699
11649.87988 0.000708
11650.95020 0.000713
11652.01953 0.000718
11653.08984 0.000723
11654.16016 0.000728
11655.21973 0.000734
11656.29004 0.000744
11657.36035 0.000755
11658.42969 0.000765
11659.50000 0.000775
11660.57031 0.000784
11661.63965 0.00079
11662.70996 0.000797
11663.78027 0.000803
11664.84961 0.000809
11665.91992 0.00082
11666.99023 0.000832
11668.05957 0.000844
11669.12012 0.000855
11670.20020 0.000866
11671.26953 0.000875
11672.33984 0.000884
11673.41016 0.000893
11674.48047 0.000901
11675.54980 0.000911
11676.62012 0.000921
11677.69043 0.000931
11678.75977 0.000941
11679.83008 0.000951
11680.90039 0.00096
11681.96973 0.000968
11683.04004 0.000977
11684.11035 0.000985
11685.19043 0.000995
11686.25977 0.001009
11687.33008 0.001024
11688.40039 0.001039
11689.46973 0.001053
11690.54004 0.001067
11691.62012 0.00108
11692.69043 0.001093
11693.75977 0.001105
11694.83008 0.001118
11695.90039 0.00113
11696.98047 0.001142
11698.04980 0.001153
11699.12012 0.001165
11700.19043 0.001177
11701.26953 0.001192
11702.33984 0.001207
11703.41016 0.001222
11704.49023 0.001237
11705.55957 0.001251
11706.62988 0.001264
11707.70996 0.001277
11708.78027 0.00129
11709.84961 0.001303
11710.92969 0.001318
11712.00000 0.001333
11713.07031 0.001349
11714.15039 0.001364
11715.21973 0.001379
11716.29980 0.001395
11717.37012 0.00141
11718.45020 0.001426
11719.51953 0.001442
11720.58984 0.001458
11721.66992 0.001475
11722.74023 0.001492
11723.82031 0.001509
11724.88965 0.001526
11725.96973 0.001544
11727.04004 0.001562
11728.12012 0.001581
11729.20020 0.001599
11730.26953 0.001618
11731.34961 0.001639
11732.41992 0.00166
11733.50000 0.001682
11734.57031 0.001703
11735.65039 0.001722
11736.73047 0.00174
11737.79980 0.001758
11738.87988 0.001775
11739.95020 0.001793
11741.03027 0.001815
11742.11035 0.001837
11743.17969 0.00186
11744.25977 0.001882
11745.33984 0.001904
11746.41016 0.001925
11747.49023 0.001947
11748.57031 0.001968
11749.65039 0.001989
11750.71973 0.002009
11751.79980 0.002029
11752.87988 0.002048
11753.95996 0.002068
11755.03027 0.002088
11756.11035 0.002115
11757.19043 0.002142
11758.26953 0.002169
11759.34961 0.002197
11760.41992 0.002224
11761.50000 0.00225
11762.58008 0.002277
11763.66016 0.002304
11764.74023 0.002331
11765.82031 0.002359
11766.90039 0.002387
11767.96973 0.002415
11769.04980 0.002443
11770.12988 0.002471
11771.20996 0.002499
11772.29004 0.002527
11773.37012 0.002555
11774.45020 0.002583
11775.53027 0.00261
11776.61035 0.002638
11777.69043 0.002665
11778.76953 0.002693
11779.84961 0.00272
11780.92969 0.002747
11782.00977 0.002774
11783.08984 0.002801
11784.16992 0.002829
11785.25000 0.002857
11786.33008 0.002891
11787.41016 0.002925
11788.49023 0.002959
11789.57031 0.002993
11790.66016 0.003026
11791.74023 0.003059
11792.82031 0.003091
11793.90039 0.003123
11794.98047 0.003155
11796.05957 0.003191
11797.13965 0.003226
11798.21973 0.003262
11799.30957 0.003297
11800.38965 0.003332
11801.46973 0.003365
11802.54980 0.003398
11803.62988 0.003431
11804.71973 0.003464
11805.79980 0.003499
11806.87988 0.003534
11807.95996 0.00357
11809.04980 0.003606
11810.12988 0.003642
11811.20996 0.003683
11812.29980 0.003724
11813.37988 0.003764
11814.45996 0.003805
11815.54980 0.003844
11816.62988 0.003881
11817.70996 0.003919
11818.79980 0.003956
11819.87988 0.003994
11820.95996 0.004037
11822.04980 0.00408
11823.12988 0.004123
11824.21973 0.004167
11825.29980 0.00421
11826.37988 0.004252
11827.46973 0.004295
11828.54980 0.004337
11829.63965 0.00438
11830.71973 0.004424
11831.80957 0.004469
11832.88965 0.004514
11833.98047 0.004559
11835.05957 0.004604
11836.15039 0.004654
11837.23047 0.004704
11838.32031 0.004754
11839.40039 0.004805
11840.49023 0.004855
11841.57031 0.004906
11842.66016 0.004957
11843.75000 0.005008
11844.83008 0.005059
11845.91992 0.005112
11847.00000 0.005164
11848.08984 0.005217
11849.17969 0.005269
11850.25977 0.005323
11851.34961 0.005378
11852.44043 0.005433
11853.51953 0.005488
11854.61035 0.005543
11855.70020 0.005601
11856.79004 0.005661
11857.87012 0.00572
11858.95996 0.005779
11860.04980 0.005839
11861.12988 0.005902
11862.21973 0.005965
11863.30957 0.006029
11864.40039 0.006092
11865.49023 0.006155
11866.57031 0.006216
11867.66016 0.006278
11868.75000 0.00634
11869.83984 0.006402
11870.92969 0.006475
11872.00977 0.006549
11873.09961 0.006624
11874.19043 0.006699
11875.28027 0.006773
11876.37012 0.006845
11877.45996 0.006916
11878.54980 0.006988
11879.63965 0.007059
11880.73047 0.007139
11881.82031 0.007223
11882.90039 0.007307
11883.99023 0.007392
11885.08008 0.007476
11886.16992 0.007564
11887.25977 0.007652
11888.34961 0.00774
11889.44043 0.007828
11890.53027 0.007919
11891.62012 0.008012
11892.70996 0.008105
11893.79980 0.008198
11894.90039 0.008291
11895.99023 0.00839
11897.08008 0.00849
11898.16992 0.00859
11899.25977 0.00869
11900.34961 0.008791
11901.44043 0.008895
11902.53027 0.008998
11903.62012 0.009102
11904.70996 0.009205
11905.80957 0.009318
11906.90039 0.009433
11907.99023 0.009549
11909.08008 0.009665
11910.16992 0.009783
11911.26953 0.009913
11912.36035 0.010044
11913.45020 0.010175
11914.54004 0.010306
11915.62988 0.01044
11916.73047 0.010577
11917.82031 0.010713
11918.91016 0.01085
11920.00977 0.010987
11921.09961 0.011139
11922.19043 0.011291
11923.29004 0.011442
11924.37988 0.011594
11925.46973 0.011751
11926.57031 0.011916
11927.66016 0.012081
11928.75000 0.012245
11929.84961 0.01241
11930.94043 0.012579
11932.03027 0.012748
11933.12988 0.012917
11934.21973 0.013086
11935.32031 0.013261
11936.41016 0.013447
11937.50977 0.013634
11938.59961 0.013821
11939.70020 0.014008
11940.79004 0.014209
11941.87988 0.014416
11942.98047 0.014624
11944.08008 0.014831
11945.16992 0.015042
11946.26953 0.015276
11947.36035 0.01551
11948.45996 0.015744
11949.54980 0.015978
11950.65039 0.016222
11951.74023 0.016473
11952.83984 0.016723
11953.92969 0.016974
11955.03027 0.017226
11956.12988 0.017505
11957.21973 0.017785
11958.32031 0.018065
11959.41992 0.018344
11960.50977 0.01863
11961.61035 0.018922
11962.70996 0.019215
11963.79980 0.019507
11964.90039 0.0198
11966.00000 0.020117
11967.08984 0.020437
11968.19043 0.020758
11969.29004 0.021078
11970.38965 0.021407
11971.48047 0.021754
11972.58008 0.0221
11973.67969 0.022447
11974.78027 0.022794
11975.87988 0.023178
11976.96973 0.023573
11978.07031 0.023967
11979.16992 0.024362
11980.26953 0.024766
11981.37012 0.025203
11982.46973 0.025639
11983.55957 0.026076
11984.66016 0.026513
11985.75977 0.026985
11986.86035 0.027471
11987.95996 0.027957
11989.05957 0.028443
11990.16016 0.028926
11991.25977 0.029383
11992.36035 0.02984
11993.45996 0.030298
11994.55957 0.030755
11995.66016 0.031263
11996.75977 0.031806
11997.86035 0.032348
11998.95996 0.03289
12000.05957 0.033435
12001.16016 0.034008
12002.25977 0.034581
12003.36035 0.035155
12004.45996 0.035728
12005.55957 0.036325
12006.66016 0.036946
12007.75977 0.037566
12008.86035 0.038186
12009.95996 0.038807
12011.07031 0.039496
12012.16992 0.040187
12013.26953 0.040879
12014.37012 0.04157
12015.46973 0.042294
12016.57031 0.043061
12017.66992 0.043829
12018.78027 0.044596
12019.87988 0.045363
12020.98047 0.046124
12022.08008 0.046885
12023.19043 0.047645
12024.29004 0.048405
12025.38965 0.049183
12026.49023 0.049993
12027.59961 0.050803
12028.70020 0.051612
12029.79980 0.052422
12030.90039 0.053233
12032.00977 0.054044
12033.11035 0.054854
12034.20996 0.055666
12035.32031 0.056498
12036.41992 0.05738
12037.51953 0.058263
12038.62988 0.059146
12039.73047 0.060029
12040.83984 0.06095
12041.94043 0.061885
12043.04004 0.062819
12044.15039 0.063754
12045.25000 0.064704
12046.36035 0.06571
12047.45996 0.066716
12048.57031 0.067721
12049.66992 0.068728
12050.78027 0.069726
12051.87988 0.070722
12052.99023 0.071718
12054.08984 0.072714
12055.20020 0.073703
12056.29980 0.074659
12057.41016 0.075615
12058.50977 0.076572
12059.62012 0.077528
12060.71973 0.078489
12061.83008 0.079453
12062.94043 0.080417
12064.04004 0.081382
12065.15039 0.082342
12066.25000 0.083279
12067.36035 0.084216
12068.46973 0.085153
12069.57031 0.08609
12070.67969 0.087055
12071.79004 0.088035
12072.88965 0.089015
12074.00000 0.089997
12075.11035 0.090978
12076.21973 0.091963
12077.32031 0.092948
12078.42969 0.093934
12079.54004 0.094919
12080.65039 0.095849
12081.75000 0.096739
12082.86035 0.097628
12083.96973 0.098519
12085.08008 0.099405
12086.19043 0.100252
12087.29004 0.101099
12088.40039 0.101945
12089.50977 0.102792
12090.62012 0.103602
12091.73047 0.104383
12092.83984 0.105163
12093.95020 0.105945
12095.04980 0.106723
12096.16016 0.107467
12097.26953 0.10821
12098.37988 0.108953
12099.49023 0.109697
12100.59961 0.110422
12101.70996 0.111132
12102.82031 0.111842
12103.92969 0.112552
12105.04004 0.113263
12106.15039 0.113965
12107.25977 0.114668
12108.37012 0.115371
12109.48047 0.116073
12110.58984 0.116739
12111.70020 0.117372
12112.80957 0.118004
12113.91992 0.118637
12115.03027 0.119267
12116.13965 0.119796
12117.25000 0.120325
12118.37012 0.120855
12119.48047 0.121384
12120.58984 0.121904
12121.70020 0.122418
12122.80957 0.122932
12123.91992 0.123445
12125.03027 0.123957
12126.15039 0.124395
12127.25977 0.124832
12128.37012 0.12527
12129.48047 0.125708
12130.58984 0.12613
12131.70996 0.126538
12132.82031 0.126946
12133.92969 0.127354
12135.04004 0.127762
12136.16016 0.128166
12137.26953 0.128569
12138.37988 0.128973
12139.49023 0.129376
12140.61035 0.129762
12141.71973 0.130134
12142.83008 0.130505
12143.95020 0.130877
12145.05957 0.131246
12146.16992 0.13157
12147.29004 0.131894
12148.40039 0.132219
12149.51953 0.132543
12150.62988 0.132837
12151.74023 0.133107
12152.86035 0.133377
12153.96973 0.133647
12155.08984 0.133917
12156.20020 0.134189
12157.32031 0.134461
12158.42969 0.134734
12159.54980 0.135006
12160.66016 0.135254
12161.78027 0.135487
12162.88965 0.135718
12164.00977 0.135951
12165.12012 0.136182
12166.24023 0.136405
12167.34961 0.136628
12168.46973 0.136851
12169.58008 0.137074
12170.70020 0.137282
12171.82031 0.13748
12172.92969 0.137679
12174.04980 0.137877
12175.16016 0.138074
12176.28027 0.138263
12177.40039 0.138453
12178.50977 0.138642
12179.62988 0.138832
12180.75000 0.138994
12181.86035 0.139143
12182.98047 0.139292
12184.09961 0.139441
12185.21973 0.139585
12186.33008 0.139703
12187.45020 0.139822
12188.57031 0.139941
12189.69043 0.14006
12190.79980 0.140172
12191.91992 0.140282
12193.04004 0.140391
12194.16016 0.140501
12195.26953 0.140605
12196.38965 0.140695
12197.50977 0.140785
12198.62988 0.140875
12199.75000 0.140965
12200.87012 0.141026
12201.99023 0.141079
12203.09961 0.141132
12204.21973 0.141184
12205.33984 0.141232
12206.45996 0.141266
12207.58008 0.141301
12208.70020 0.141335
12209.82031 0.14137
12210.94043 0.141369
12212.05957 0.141361
12213.17969 0.141354
12214.29980 0.141346
12215.41992 0.141332
12216.54004 0.141308
12217.66016 0.141283
12218.78027 0.141259
12219.90039 0.141234
12221.01953 0.141182
12222.13965 0.141126
12223.25977 0.141071
12224.37988 0.141016
12225.50000 0.140951
12226.62012 0.140873
12227.74023 0.140795
12228.87012 0.140716
12229.99023 0.140638
12231.11035 0.140533
12232.23047 0.140427
12233.34961 0.14032
12234.46973 0.140214
12235.58984 0.140088
12236.71973 0.139942
12237.83984 0.139796
12238.95996 0.139651
12240.08008 0.139505
12241.20996 0.139356
12242.33008 0.139208
12243.45020 0.139059
12244.57031 0.13891
12245.70020 0.138742
12246.82031 0.13856
12247.94043 0.138379
12249.05957 0.138198
12250.19043 0.138015
12251.30957 0.137823
12252.42969 0.137631
12253.55957 0.137439
12254.67969 0.137247
12255.80957 0.13703
12256.92969 0.136804
12258.04980 0.136578
12259.17969 0.136351
12260.29980 0.136126
12261.41992 0.135905
12262.54980 0.135683
12263.66992 0.135461
12264.79980 0.135239
12265.91992 0.134986
12267.04980 0.134727
12268.16992 0.134467
12269.29980 0.134208
12270.41992 0.133946
12271.54980 0.133682
12272.66992 0.133417
12273.79980 0.133152
12274.91992 0.132888
12276.04980 0.132648
12277.16992 0.132409
12278.29980 0.132171
12279.42969 0.131932
12280.54980 0.131661
12281.67969 0.131357
12282.79980 0.131052
12283.92969 0.130747
12285.05957 0.130446
12286.17969 0.130209
12287.30957 0.129973
12288.44043 0.129736
12289.55957 0.129499
12290.69043 0.129246
12291.82031 0.128982
12292.94043 0.128718
12294.07031 0.128454
12295.20020 0.12819
12296.33008 0.127921
12297.45020 0.127653
12298.58008 0.127385
12299.70996 0.127116
12300.83984 0.126858
12301.95996 0.126604
12303.08984 0.126349
12304.21973 0.126094
12305.34961 0.125847
12306.48047 0.125618
12307.61035 0.125388
12308.73047 0.125158
12309.86035 0.124928
12310.99023 0.124711
12312.12012 0.124496
12313.25000 0.124281
12314.37988 0.124066
12315.50977 0.123851
12316.63965 0.123635
12317.76953 0.123419
12318.90039 0.123203
12320.01953 0.122988
12321.15039 0.122781
12322.28027 0.122574
12323.41016 0.122367
12324.54004 0.122161
12325.66992 0.121967
12326.79980 0.121782
12327.92969 0.121596
12329.05957 0.121411
12330.20020 0.121225
12331.33008 0.121039
12332.45996 0.120853
12333.58984 0.120666
12334.71973 0.12048
12335.84961 0.120339
12336.98047 0.120214
12338.11035 0.120088
12339.24023 0.119963
12340.37012 0.119837
12341.50977 0.11971
12342.63965 0.119584
12343.76953 0.119457
12344.90039 0.119331
12346.03027 0.119228
12347.16992 0.119128
12348.29980 0.119028
12349.42969 0.118927
12350.55957 0.118832
12351.69043 0.118743
12352.83008 0.118653
12353.95996 0.118563
12355.08984 0.118475
12356.21973 0.118408
12357.36035 0.118341
12358.49023 0.118274
12359.62012 0.118207
12360.75977 0.118151
12361.88965 0.118101
12363.01953 0.118051
12364.16016 0.118001
12365.29004 0.117958
12366.42969 0.117936
12367.55957 0.117915
12368.69043 0.117894
12369.83008 0.117873
12370.95996 0.117864
12372.09961 0.117857
12373.23047 0.11785
12374.37012 0.117843
12375.50000 0.117847
12376.62988 0.117867
12377.76953 0.117888
12378.90039 0.117908
12380.04004 0.117928
12381.16992 0.11796
12382.30957 0.117993
12383.45020 0.118025
12384.58008 0.118058
12385.71973 0.118104
12386.84961 0.118159
12387.99023 0.118214
12389.12012 0.118268
12390.25977 0.118329
12391.40039 0.118408
12392.53027 0.118488
12393.66992 0.118568
12394.79980 0.118648
12395.94043 0.11874
12397.08008 0.118834
12398.20996 0.118929
12399.34961 0.119024
12400.49023 0.119121
12401.62012 0.11922
12402.75977 0.119319
12403.90039 0.119419
12405.04004 0.119519
12406.16992 0.119649
12407.30957 0.11978
12408.45020 0.11991
12409.58984 0.12004
12410.71973 0.120173
12411.86035 0.120308
12413.00000 0.120443
12414.13965 0.120578
12415.28027 0.120717
12416.41992 0.12087
12417.54980 0.121024
12418.69043 0.121177
12419.83008 0.12133
12420.96973 0.121504
12422.11035 0.12168
12423.25000 0.121857
12424.38965 0.122034
12425.53027 0.122214
12426.66992 0.122398
12427.80957 0.122582
12428.95020 0.122767
12430.08008 0.122951
12431.21973 0.123141
12432.36035 0.123331
12433.50000 0.12352
12434.63965 0.12371
12435.78027 0.123902
12436.91992 0.124095
12438.07031 0.124287
12439.20996 0.12448
12440.34961 0.124678
12441.49023 0.124885
12442.62988 0.125092
12443.76953 0.125299
12444.91016 0.125507
12446.04980 0.12572
12447.19043 0.125935
12448.33008 0.126149
12449.46973 0.126363
12450.62012 0.126583
12451.75977 0.126809
12452.90039 0.127036
12454.04004 0.127262
12455.17969 0.127487
12456.33008 0.127707
12457.46973 0.127926
12458.61035 0.128146
12459.75000 0.128366
12460.88965 0.128583
12462.04004 0.1288
12463.17969 0.129017
12464.32031 0.129233
12465.46973 0.129448
12466.61035 0.129659
12467.75000 0.129871
12468.88965 0.130083
12470.04004 0.130295
12471.17969 0.130518
12472.33008 0.130741
12473.46973 0.130964
12474.61035 0.131187
12475.75977 0.131395
12476.90039 0.131595
12478.04004 0.131795
12479.19043 0.131995
12480.33008 0.1322
12481.48047 0.132416
12482.62012 0.132632
12483.76953 0.132848
12484.91016 0.133065
12486.05957 0.133259
12487.20020 0.133451
12488.33984 0.133644
12489.49023 0.133836
12490.63965 0.134025
12491.78027 0.13421
12492.92969 0.134395
12494.07031 0.13458
12495.21973 0.134764
12496.36035 0.134943
12497.50977 0.135122
12498.65039 0.135302
12499.79980 0.135481
12500.95020 0.135643
12502.08984 0.135802
12503.24023 0.13596
12504.38965 0.136118
12505.53027 0.136272
12506.67969 0.13642
12507.83008 0.136568
12508.96973 0.136716
12510.12012 0.136863
12511.26953 0.136999
12512.41016 0.137136
12513.55957 0.137272
12514.70996 0.137408
12515.86035 0.137544
12517.00000 0.137681
12518.15039 0.137818
12519.29980 0.137954
12520.45020 0.138078
12521.59961 0.138183
12522.74023 0.138288
12523.88965 0.138393
12525.04004 0.138497
12526.19043 0.138596
12527.33984 0.138694
12528.49023 0.138792
12529.62988 0.13889
12530.78027 0.138975
12531.92969 0.139053
12533.08008 0.139132
12534.23047 0.139211
12535.37988 0.139285
12536.53027 0.139351
12537.67969 0.139416
12538.83008 0.139482
12539.98047 0.139548
12541.12988 0.139605
12542.28027 0.139662
12543.42969 0.13972
12544.58008 0.139777
12545.73047 0.139826
12546.87988 0.139871
12548.03027 0.139915
12549.17969 0.13996
12550.33008 0.14
12551.48047 0.140029
12552.62988 0.140058
12553.78027 0.140087
12554.92969 0.140116
12556.08008 0.140131
12557.24023 0.140144
12558.38965 0.140157
12559.54004 0.140171
12560.69043 0.140184
12561.83984 0.140197
12563.00000 0.140209
12564.15039 0.140222
12565.29980 0.140232
12566.45020 0.140232
12567.59961 0.140232
12568.75977 0.140232
12569.91016 0.140232
12571.05957 0.140224
12572.20996 0.140216
12573.37012 0.140209
12574.51953 0.140201
12575.66992 0.140191
12576.83008 0.14018
12577.98047 0.14017
12579.12988 0.140159
12580.29004 0.140144
12581.44043 0.140116
12582.58984 0.140088
12583.75000 0.140059
12584.90039 0.140031
12586.04980 0.140006
12587.20996 0.139982
12588.36035 0.139957
12589.51953 0.139933
12590.66992 0.139908
12591.83008 0.139882
12592.98047 0.139856
12594.12988 0.139831
12595.29004 0.139804
12596.44043 0.139773
12597.59961 0.139742
12598.75000 0.139711
12599.91016 0.139681
12601.05957 0.139642
12602.21973 0.139603
12603.37988 0.139564
12604.53027 0.139524
12605.69043 0.139493
12606.83984 0.139466
12608.00000 0.139439
12609.15039 0.139412
12610.30957 0.139382
12611.46973 0.139344
12612.62012 0.139306
12613.78027 0.139267
12614.94043 0.139229
12616.08984 0.139194
12617.25000 0.139158
12618.41016 0.139123
12619.55957 0.139088
12620.71973 0.139048
12621.87988 0.139005
12623.04004 0.138963
12624.19043 0.13892
12625.34961 0.138882
12626.50977 0.138853
12627.66992 0.138824
12628.82031 0.138795
