# %ECSV 0.9
# ---
# datatype:
# - {name: wavelength, unit: Angstrom, datatype: float32}
# - {name: response, datatype: float32}
# meta: !!omap
# - {band_name: F600LP}
# - {group_name: WFC3_UVIS2}
wavelength response
5293.73389 0.0
5881.92676 0.000403
5882.93311 0.000424
5883.93896 0.000445
5884.94580 0.000467
5885.95312 0.000488
5886.95898 0.000509
5887.96680 0.000531
5888.97412 0.000552
5889.98096 0.000573
5890.98877 0.000594
5891.99707 0.000621
5893.00391 0.000658
5894.01318 0.000695
5895.02100 0.000732
5896.02881 0.000769
5897.03809 0.000806
5898.04590 0.000843
5899.05518 0.00088
5900.06396 0.000917
5901.07422 0.000954
5902.08301 0.000999
5903.09277 0.001054
5904.10303 0.001109
5905.11279 0.001165
5906.12305 0.00122
5907.13281 0.001275
5908.14404 0.00133
5909.15381 0.001386
5910.16504 0.001441
5911.17578 0.001496
5912.18701 0.001567
5913.19922 0.00165
5914.20996 0.001732
5915.22217 0.001815
5916.23389 0.001898
5917.24609 0.001981
5918.25781 0.002064
5919.27100 0.002147
5920.28320 0.002229
5921.29492 0.002312
5922.30908 0.002426
5923.32178 0.002555
5924.33496 0.002683
5925.34814 0.002812
5926.36182 0.002941
5927.37500 0.00307
5928.39014 0.003199
5929.40381 0.003328
5930.41797 0.003457
5931.43311 0.003586
5932.44678 0.003762
5933.46191 0.003951
5934.47705 0.004139
5935.49219 0.004328
5936.50684 0.004516
5937.52295 0.004704
5938.53906 0.004893
5939.55518 0.005081
5940.56982 0.00527
5941.58691 0.005458
5942.60303 0.00572
5943.62012 0.005986
5944.63623 0.006252
5945.65283 0.006518
5946.66992 0.006784
5947.68701 0.00705
5948.70508 0.007317
5949.72314 0.007583
5950.74023 0.007849
5951.75781 0.008126
5952.77588 0.008494
5953.79492 0.008862
5954.81299 0.00923
5955.83203 0.009598
5956.85107 0.009966
5957.87012 0.010334
5958.88916 0.010702
5959.90820 0.011071
5960.92822 0.011439
5961.94678 0.011844
5962.96680 0.012339
5963.98682 0.012835
5965.00684 0.013331
5966.02783 0.013826
5967.04785 0.014322
5968.06885 0.014818
5969.08984 0.015314
5970.11084 0.015809
5971.13184 0.016304
5972.15381 0.016872
5973.17480 0.017516
5974.19678 0.018161
5975.21924 0.018805
5976.24121 0.019449
5977.26416 0.020094
5978.28613 0.020738
5979.30908 0.021382
5980.33203 0.022027
5981.35400 0.022673
5982.37793 0.023423
5983.40088 0.024217
5984.42480 0.025011
5985.44824 0.025804
5986.47217 0.026598
5987.49707 0.027393
5988.52100 0.028187
5989.54492 0.028981
5990.56982 0.029775
5991.59424 0.030569
5992.61914 0.031494
5993.64502 0.032429
5994.66992 0.033363
5995.69482 0.034297
5996.72119 0.035231
5997.74707 0.036165
5998.77197 0.0371
5999.79883 0.038034
6000.82520 0.038972
6001.85205 0.039943
6002.87793 0.041057
6003.90479 0.042172
6004.93213 0.043286
6005.95898 0.044401
6006.98682 0.045516
6008.01416 0.046632
6009.04199 0.047748
6010.06982 0.048864
6011.09814 0.049981
6012.12598 0.05117
6013.15479 0.052447
6014.18408 0.053725
6015.21191 0.055003
6016.24121 0.056281
6017.27100 0.05756
6018.29980 0.05884
6019.32910 0.060119
6020.35889 0.061399
6021.38916 0.062679
6022.41895 0.064022
6023.44922 0.065387
6024.47900 0.066753
6025.50977 0.068118
6026.54102 0.069485
6027.57178 0.070852
6028.60303 0.072219
6029.63379 0.073587
6030.66602 0.074951
6031.69678 0.076313
6032.72900 0.077748
6033.76123 0.079183
6034.79297 0.080618
6035.82520 0.082053
6036.85791 0.083488
6037.89111 0.084924
6038.92285 0.086359
6039.95703 0.087795
6040.99023 0.089238
6042.02295 0.090711
6043.05713 0.092242
6044.08984 0.093772
6045.12402 0.095303
6046.15820 0.096834
6047.19189 0.098366
6048.22705 0.099898
6049.26221 0.101431
6050.29590 0.102964
6051.33203 0.104498
6052.36719 0.106033
6053.40186 0.10757
6054.43799 0.109108
6055.47314 0.110645
6056.50879 0.112184
6057.54492 0.113722
6058.58105 0.115261
6059.61816 0.116801
6060.65381 0.118341
6061.69092 0.119881
6062.72803 0.121385
6063.76514 0.12289
6064.80176 0.124395
6065.83887 0.1259
6066.87695 0.127407
6067.91504 0.128913
6068.95312 0.13042
6069.99121 0.131928
6071.02979 0.133436
6072.06787 0.134928
6073.10693 0.136397
6074.14600 0.137865
6075.18506 0.139333
6076.22412 0.140803
6077.26318 0.142272
6078.30322 0.143742
6079.34277 0.145213
6080.38281 0.146684
6081.42285 0.148155
6082.46289 0.149592
6083.50293 0.151018
6084.54395 0.152445
6085.58496 0.153871
6086.62598 0.155298
6087.66699 0.156726
6088.70801 0.158154
6089.75000 0.159582
6090.79199 0.161
6091.83398 0.162402
6092.87598 0.163726
6093.91797 0.16505
6094.95996 0.166375
6096.00293 0.1677
6097.04590 0.169024
6098.08887 0.170349
6099.13184 0.171674
6100.17480 0.173001
6101.21924 0.174342
6102.26318 0.175626
6103.30713 0.176864
6104.35107 0.178102
6105.39502 0.17934
6106.43896 0.180579
6107.48389 0.181818
6108.52783 0.183057
6109.57324 0.184297
6110.61914 0.185537
6111.66406 0.186778
6112.70898 0.187935
6113.75488 0.18909
6114.80078 0.190246
6115.84717 0.191402
6116.89307 0.192558
6117.93896 0.193715
6118.98584 0.194872
6120.03320 0.19603
6121.08008 0.197187
6122.12598 0.198306
6123.17383 0.199371
6124.22119 0.200436
6125.26904 0.201501
6126.31689 0.202567
6127.36523 0.203632
6128.41309 0.204698
6129.46094 0.205765
6130.50977 0.206831
6131.55908 0.207898
6132.60693 0.208873
6133.65576 0.209834
6134.70605 0.210796
6135.75488 0.211757
6136.80518 0.21272
6137.85400 0.213682
6138.90381 0.214644
6139.95508 0.215608
6141.00488 0.216571
6142.05518 0.2175
6143.10596 0.218363
6144.15723 0.219226
6145.20801 0.22009
6146.25879 0.220954
6147.31104 0.221818
6148.36182 0.222682
6149.41406 0.223547
6150.46582 0.224403
6151.51807 0.225248
6152.56982 0.226027
6153.62305 0.226791
6154.67480 0.227556
6155.72803 0.228322
6156.78076 0.229087
6157.83398 0.229852
6158.88818 0.230617
6159.94092 0.231383
6160.99512 0.232168
6162.04883 0.232927
6163.10303 0.23363
6164.15723 0.234334
6165.21191 0.235037
6166.26611 0.235741
6167.32080 0.236445
6168.37598 0.237149
6169.43115 0.237853
6170.48682 0.238558
6171.54199 0.239262
6172.59814 0.239902
6173.65381 0.240529
6174.70996 0.241156
6175.76611 0.241784
6176.82324 0.242412
6177.87891 0.243039
6178.93604 0.243667
6179.99316 0.244295
6181.04980 0.244924
6182.10693 0.245526
6183.16504 0.246085
6184.22314 0.246643
6185.28076 0.247202
6186.33887 0.247761
6187.39697 0.24832
6188.45605 0.24888
6189.51416 0.24944
6190.57324 0.249999
6191.63184 0.250559
6192.69092 0.251071
6193.75000 0.25158
6194.81006 0.252088
6195.87012 0.252598
6196.92920 0.253107
6197.98877 0.253616
6199.04980 0.254125
6200.10986 0.254632
6201.16992 0.255119
6202.23096 0.255578
6203.29199 0.25601
6204.35400 0.256441
6205.41504 0.256873
6206.47705 0.257305
6207.53809 0.257736
6208.60010 0.258168
6209.66211 0.2586
6210.72412 0.259047
6211.78711 0.259499
6212.84912 0.259897
6213.91211 0.260296
6214.97510 0.260694
6216.03809 0.261092
6217.10205 0.261491
6218.16504 0.26189
6219.22900 0.262288
6220.29199 0.262687
6221.35596 0.263086
6222.42090 0.263451
6223.48486 0.263797
6224.54980 0.264143
6225.61523 0.264489
6226.68018 0.264835
6227.74512 0.265182
6228.81006 0.265528
6229.87500 0.265875
6230.94092 0.266223
6232.00684 0.266562
6233.07324 0.266871
6234.14014 0.267182
6235.20605 0.267491
6236.27197 0.267802
6237.33887 0.268112
6238.40576 0.268422
6239.47412 0.268732
6240.54102 0.269031
6241.60791 0.269316
6242.67578 0.269594
6243.74414 0.26987
6244.81201 0.270146
6245.87988 0.270423
6246.94922 0.270699
6248.01709 0.270975
6249.08594 0.271252
6250.15479 0.271532
6251.22412 0.271833
6252.29297 0.272102
6253.36279 0.272343
6254.43311 0.272584
6255.50195 0.272825
6256.57324 0.273066
6257.64307 0.273307
6258.71289 0.273548
6259.78418 0.273789
6260.85498 0.27403
6261.92578 0.274269
6262.99707 0.274496
6264.06787 0.274723
6265.14014 0.274951
6266.21191 0.275178
6267.28418 0.275406
6268.35498 0.275633
6269.42822 0.275861
6270.50000 0.276089
6271.57324 0.276317
6272.64600 0.276522
6273.71924 0.276723
6274.79199 0.276925
6275.86621 0.277126
6276.93896 0.277328
6278.01318 0.27753
6279.08691 0.277731
6280.16113 0.277933
6281.23486 0.278135
6282.31006 0.278328
6283.38379 0.278513
6284.45898 0.278699
6285.53418 0.278884
6286.60889 0.279069
6287.68506 0.279255
6288.75977 0.27944
6289.83594 0.279626
6290.91211 0.27979
6291.98779 0.279945
6293.06396 0.280087
6294.14111 0.280228
6295.21777 0.28037
6296.29395 0.280512
6297.37207 0.280653
6298.44922 0.280795
6299.52588 0.280937
6300.60400 0.281093
6301.68213 0.28126
6302.75977 0.28141
6303.83789 0.281559
6304.91602 0.281708
6305.99512 0.281858
6307.07324 0.282007
6308.15186 0.282156
6309.23096 0.282305
6310.31104 0.282454
6311.39014 0.282604
6312.47021 0.282739
6313.54980 0.282867
6314.62988 0.282995
6315.70996 0.283123
6316.79004 0.283251
6317.87109 0.28338
6318.95215 0.283508
6320.03223 0.283637
6321.11377 0.283765
6322.19482 0.283885
6323.27588 0.283995
6324.35791 0.284104
6325.43994 0.284213
6326.52197 0.284323
6327.60400 0.284432
6328.68701 0.284542
6329.76904 0.284651
6330.85205 0.28474
6331.93506 0.284824
6333.01807 0.284912
6334.10205 0.285
6335.18506 0.285089
6336.26904 0.285177
6337.35303 0.285265
6338.43701 0.285354
6339.52100 0.285442
6340.60498 0.285545
6341.68994 0.28566
6342.77490 0.285753
6343.85986 0.285844
6344.94482 0.285936
6346.02979 0.286028
6347.11621 0.28612
6348.20215 0.286212
6349.28809 0.286303
6350.37402 0.286395
6351.45996 0.286487
6352.54590 0.286576
6353.63281 0.286664
6354.72021 0.286753
6355.80713 0.286841
6356.89502 0.28693
6357.98193 0.287018
6359.06885 0.287106
6360.15723 0.287195
6361.24512 0.287283
6362.33301 0.287366
6363.42188 0.287444
6364.50977 0.287522
6365.59912 0.2876
6366.68799 0.287678
6367.77686 0.287756
6368.86621 0.287834
6369.95605 0.287912
6371.04492 0.287964
6372.13477 0.288017
6373.22510 0.288075
6374.31494 0.288132
6375.40576 0.28819
6376.49707 0.288247
6377.58691 0.288305
6378.67822 0.288362
6379.77002 0.28842
6380.86084 0.288498
6381.95215 0.288578
6383.04395 0.288637
6384.13623 0.288695
6385.22803 0.288754
6386.31982 0.288813
6387.41309 0.288872
6388.50488 0.288931
6389.59814 0.288989
6390.69092 0.289048
6391.78418 0.289107
6392.87793 0.289175
6393.97119 0.289244
6395.06494 0.289313
6396.15918 0.289382
6397.25293 0.28945
6398.34814 0.289519
6399.44189 0.289588
6400.53711 0.289656
6401.63184 0.289725
6402.72705 0.289776
6403.82178 0.289824
6404.91699 0.289872
6406.01318 0.289921
6407.10889 0.289969
6408.20508 0.290017
6409.30078 0.290066
6410.39697 0.290104
6411.49414 0.290125
6412.59082 0.290148
6413.68799 0.290173
6414.78516 0.290197
6415.88184 0.290221
6416.97998 0.290245
6418.07812 0.29027
6419.17480 0.290294
6420.27295 0.290325
6421.37207 0.290376
6422.47021 0.290426
6423.56885 0.290476
6424.66699 0.290525
6425.76709 0.290575
6426.86621 0.290624
6427.96484 0.290674
6429.06494 0.290723
6430.16504 0.290772
6431.26514 0.290816
6432.36523 0.290853
6433.46484 0.290885
6434.56494 0.290917
6435.66602 0.29095
6436.76709 0.290982
6437.86816 0.291014
6438.97021 0.291046
6440.07080 0.291078
6441.17285 0.29111
6442.27393 0.291142
6443.37598 0.291174
6444.47900 0.291206
6445.58105 0.291238
6446.68408 0.29127
6447.78711 0.291302
6448.89014 0.291334
6449.99316 0.291366
6451.09619 0.29137
6452.20020 0.291377
6453.30322 0.291389
6454.40723 0.291402
6455.51123 0.291414
6456.61621 0.291426
6457.72021 0.291438
6458.82520 0.291451
6459.93018 0.291463
6461.03516 0.291501
6462.14014 0.291535
6463.24512 0.29156
6464.35107 0.291584
6465.45703 0.291608
6466.56299 0.291633
6467.66895 0.291657
6468.77490 0.291681
6469.88184 0.291705
6470.98877 0.291729
6472.09619 0.291753
6473.20312 0.291777
6474.31006 0.291801
6475.41699 0.291826
6476.52490 0.29185
6477.63281 0.291874
6478.74121 0.291898
6479.85010 0.291922
6480.95801 0.291946
6482.06592 0.291967
6483.17480 0.291979
6484.28418 0.291991
6485.39404 0.292003
6486.50293 0.292015
6487.61279 0.292028
6488.72217 0.29204
6489.83301 0.292052
6490.94189 0.29204
6492.05322 0.292031
6493.16406 0.292041
6494.27393 0.292052
6495.38477 0.292063
6496.49609 0.292073
6497.60693 0.292084
6498.71924 0.292095
6499.83105 0.292105
6500.94189 0.292087
6502.05518 0.292055
6503.16699 0.291996
6504.27881 0.291936
6505.39209 0.291877
6506.50488 0.291818
6507.61816 0.291759
6508.73096 0.2917
6509.84424 0.291641
6510.95801 0.291581
6512.07178 0.291525
6513.18604 0.291483
6514.29980 0.29144
6515.41406 0.291397
6516.52881 0.291354
6517.64404 0.291311
6518.75781 0.291268
6519.87402 0.291225
6520.98877 0.291157
6522.10400 0.291084
6523.22021 0.291007
6524.33594 0.29093
6525.45215 0.290854
6526.56787 0.290777
6527.68506 0.2907
6528.80078 0.290623
6529.91797 0.290546
6531.03516 0.290495
6532.15186 0.290447
6533.27002 0.290401
6534.38721 0.290355
6535.50488 0.29031
6536.62305 0.290264
6537.74121 0.290219
6538.85986 0.290173
6539.97803 0.290127
6541.09717 0.290081
6542.21582 0.290033
6543.33496 0.289982
6544.45410 0.28993
6545.57422 0.289878
6546.69287 0.289826
6547.81299 0.289774
6548.93408 0.289722
6550.05420 0.28967
6551.17383 0.289618
6552.29492 0.289565
6553.41602 0.289511
6554.53711 0.289457
6555.65820 0.289404
6556.77881 0.28935
6557.90088 0.289296
6559.02295 0.289243
6560.14502 0.289185
6561.26709 0.289104
6562.39014 0.289025
6563.51221 0.288951
6564.63477 0.288876
6565.75781 0.288801
6566.88086 0.288726
6568.00391 0.288652
6569.12793 0.288577
6570.25098 0.288508
6571.37500 0.288461
6572.50000 0.288404
6573.62402 0.288341
6574.74902 0.288278
6575.87305 0.288215
6576.99805 0.288152
6578.12305 0.288089
6579.24805 0.288025
6580.37402 0.287962
6581.50000 0.287899
6582.62500 0.287839
6583.75098 0.28778
6584.87695 0.287722
6586.00391 0.287664
6587.12988 0.287605
6588.25684 0.287546
6589.38379 0.287488
6590.51221 0.287417
6591.63916 0.28733
6592.76709 0.287252
6593.89404 0.287175
6595.02197 0.287098
6596.14990 0.28702
6597.27881 0.286943
6598.40723 0.286866
6599.53613 0.286789
6600.66504 0.286728
6601.79395 0.286679
6602.92285 0.286621
6604.05322 0.286563
6605.18311 0.286504
6606.31299 0.286446
6607.44189 0.286388
6608.57324 0.28633
6609.70312 0.286272
6610.83398 0.286213
6611.96484 0.286156
6613.09619 0.286108
6614.22705 0.286059
6615.35791 0.28601
6616.49023 0.285962
6617.62207 0.285913
6618.75391 0.285865
6619.88623 0.285816
6621.01904 0.285768
6622.15088 0.285713
6623.28418 0.285642
6624.41699 0.285571
6625.54980 0.285501
6626.68408 0.28543
6627.81689 0.285359
6628.95117 0.285289
6630.08496 0.285215
6631.21924 0.285104
6632.35400 0.284997
6633.48779 0.284896
6634.62305 0.284795
6635.75781 0.284694
6636.89307 0.284593
6638.02783 0.284492
6639.16406 0.284391
6640.29883 0.284298
6641.43506 0.284224
6642.57080 0.284148
6643.70801 0.284071
6644.84424 0.283994
6645.98096 0.283917
6647.11816 0.28384
6648.25488 0.283763
6649.39209 0.283686
6650.52881 0.283609
6651.66699 0.283531
6652.80518 0.283465
6653.94287 0.283401
6655.08105 0.283336
6656.22021 0.283272
6657.35791 0.283208
6658.49707 0.283143
6659.63623 0.283079
6660.77490 0.282996
6661.91504 0.282903
6663.05420 0.282802
6664.19385 0.282701
6665.33398 0.2826
6666.47510 0.282499
6667.61523 0.282399
6668.75488 0.282298
6669.89600 0.282197
6671.03711 0.282122
6672.17822 0.282044
6673.31885 0.281955
6674.46094 0.281866
6675.60303 0.281778
6676.74512 0.281689
6677.88721 0.2816
6679.02881 0.281512
6680.17188 0.281423
6681.31396 0.281334
6682.45801 0.281255
6683.60107 0.281185
6684.74414 0.281115
6685.88721 0.281044
6687.03076 0.280974
6688.17480 0.280904
6689.31885 0.280834
6690.46289 0.280752
6691.60791 0.280654
6692.75195 0.280541
6693.89697 0.280424
6695.04199 0.280307
6696.18799 0.28019
6697.33301 0.280073
6698.47900 0.279956
6699.62500 0.279839
6700.77100 0.27974
6701.91699 0.279653
6703.06299 0.2796
6704.20996 0.279546
6705.35693 0.279493
6706.50391 0.27944
6707.65088 0.279387
6708.79883 0.279333
6709.94580 0.27928
6711.09424 0.279227
6712.24219 0.279162
6713.39014 0.279075
6714.53906 0.278988
6715.68701 0.278902
6716.83594 0.278815
6717.98486 0.278728
6719.13379 0.278641
6720.28418 0.278548
6721.43311 0.278433
6722.58301 0.278319
6723.73291 0.278206
6724.88281 0.278092
6726.03418 0.277979
6727.18408 0.277866
6728.33496 0.277752
6729.48584 0.277639
6730.63721 0.277541
6731.78906 0.277455
6732.93994 0.277387
6734.09180 0.277321
6735.24414 0.277254
6736.39600 0.277188
6737.54785 0.277121
6738.70117 0.277055
6739.85400 0.276988
6741.00586 0.276922
6742.16016 0.276853
6743.31299 0.276778
6744.46582 0.276703
6745.62012 0.276628
6746.77393 0.276553
6747.92822 0.276478
6749.08301 0.276403
6750.23682 0.276323
6751.39209 0.27622
6752.54590 0.276118
6753.70215 0.276016
6754.85693 0.275913
6756.01221 0.275811
6757.16797 0.275709
6758.32422 0.275607
6759.47998 0.275505
6760.63623 0.275418
6761.79297 0.275343
6762.95020 0.275265
6764.10596 0.275187
6765.26416 0.275109
6766.42090 0.275031
6767.57812 0.274953
6768.73584 0.274875
6769.89404 0.274797
6771.05176 0.274719
6772.20996 0.27464
6773.36914 0.274562
6774.52686 0.274484
6775.68604 0.274405
6776.84521 0.274327
6778.00391 0.274249
6779.16406 0.27417
6780.32422 0.274084
6781.48291 0.273978
6782.64404 0.273879
6783.80420 0.273784
6784.96387 0.273688
6786.12500 0.273593
6787.28613 0.273497
6788.44678 0.273402
6789.60791 0.273306
6790.77002 0.273229
6791.93115 0.27316
6793.09277 0.273073
6794.25488 0.272985
6795.41699 0.272898
6796.58008 0.272811
6797.74219 0.272724
6798.90479 0.272637
6800.06787 0.27255
6801.23096 0.272462
6802.39502 0.272381
6803.55908 0.272308
6804.72217 0.272235
6805.88623 0.272162
6807.05078 0.272088
6808.21484 0.272015
6809.37891 0.271942
6810.54395 0.271855
6811.70898 0.271755
6812.87500 0.271646
6814.04004 0.271537
6815.20605 0.271427
6816.37207 0.271318
6817.53809 0.271209
6818.70410 0.271099
6819.87012 0.27099
6821.03711 0.270905
6822.20410 0.270823
6823.37109 0.270745
6824.53809 0.270666
6825.70605 0.270587
6826.87305 0.270508
6828.04102 0.270429
6829.20898 0.270351
6830.37695 0.270274
6831.54492 0.270203
6832.71387 0.270125
6833.88281 0.270045
6835.05176 0.269964
6836.22119 0.269884
6837.39111 0.269803
6838.56006 0.269723
6839.72998 0.269642
6840.89990 0.269541
6842.06982 0.269435
6843.24121 0.269339
6844.41113 0.269243
6845.58203 0.269147
6846.75293 0.269051
6847.92383 0.268955
6849.09619 0.268859
6850.26807 0.26877
6851.43896 0.268701
6852.61084 0.268641
6853.78320 0.268586
6854.95605 0.26853
6856.12793 0.268475
6857.30078 0.26842
6858.47412 0.268365
6859.64697 0.26831
6860.82080 0.268236
6861.99512 0.268151
6863.16797 0.268052
6864.34180 0.267954
6865.51709 0.267854
6866.69092 0.267755
6867.86621 0.267656
6869.04102 0.267558
6870.21484 0.267464
6871.39111 0.267392
6872.56592 0.267318
6873.74219 0.267242
6874.91699 0.267166
6876.09424 0.26709
6877.27002 0.267014
6878.44580 0.266939
6879.62305 0.266863
6880.79980 0.266787
6881.97705 0.266712
6883.15381 0.266649
6884.33203 0.266587
6885.50879 0.266524
6886.68701 0.266461
6887.86523 0.266398
6889.04297 0.266336
6890.22217 0.266268
6891.39990 0.266178
6892.58008 0.266075
6893.75781 0.265962
6894.93799 0.265848
6896.11719 0.265735
6897.29688 0.265622
6898.47705 0.265509
6899.65723 0.265396
6900.83691 0.265302
6902.01807 0.265218
6903.19824 0.265147
6904.37891 0.265077
6905.56006 0.265007
6906.74121 0.264937
6907.92285 0.264866
6909.10400 0.264796
6910.28711 0.264726
6911.46924 0.264655
6912.65088 0.264589
6913.83301 0.264524
6915.01611 0.26446
6916.19922 0.264396
6917.38184 0.264331
6918.56494 0.264267
6919.74902 0.264202
6920.93311 0.264117
6922.11719 0.264024
6923.30078 0.263926
6924.48486 0.263828
6925.66895 0.26373
6926.85400 0.263632
6928.03906 0.263534
6929.22412 0.263436
6930.41016 0.263348
6931.59521 0.263277
6932.78076 0.263209
6933.96680 0.263141
6935.15283 0.263074
6936.33887 0.263007
6937.52588 0.262939
6938.71191 0.262872
6939.89893 0.262805
6941.08594 0.262713
6942.27393 0.262621
6943.46094 0.262534
6944.64893 0.262447
6945.83691 0.26236
6947.02490 0.262273
6948.21387 0.262186
6949.40186 0.262098
6950.59082 0.262025
6951.77979 0.261965
6952.96924 0.261884
6954.15918 0.2618
6955.34814 0.261717
6956.53809 0.261633
6957.72803 0.261549
6958.91797 0.261466
6960.10889 0.261382
6961.29883 0.261299
6962.49023 0.261227
6963.68115 0.261167
6964.87305 0.261107
6966.06396 0.261047
6967.25488 0.260988
6968.44678 0.260928
6969.63916 0.260868
6970.83203 0.26079
