# %ECSV 0.9
# ---
# datatype:
# - {name: wavelength, unit: Angstrom, datatype: float32}
# - {name: response, datatype: float32}
# meta: !!omap
# - {band_name: N}
# - {group_name: CanariCam}
wavelength response
65934.00000 0.0
73260.00000 0.004065
73270.00000 0.004181
73280.00000 0.004295
73290.00000 0.004402
73300.00000 0.004504
73310.00000 0.004597
73320.00000 0.004674
73330.00000 0.00474
73340.00000 0.004791
73350.00000 0.004828
73360.00000 0.004851
73370.00000 0.004866
73380.00000 0.004871
73390.00000 0.004869
73400.00000 0.004868
73410.00000 0.004864
73420.00000 0.004862
73430.00000 0.004864
73440.00000 0.00487
73450.00000 0.004879
73460.00000 0.004893
73470.00000 0.004909
73480.00000 0.004928
73490.00000 0.004949
73500.00000 0.004973
73510.00000 0.004999
73520.00000 0.005028
73530.00000 0.005059
73540.00000 0.005094
73550.00000 0.005132
73560.00000 0.005173
73570.00000 0.005217
73580.00000 0.005262
73590.00000 0.005307
73600.00000 0.005353
73610.00000 0.005396
73620.00000 0.005436
73630.00000 0.005474
73640.00000 0.005508
73650.00000 0.005538
73660.00000 0.005566
73670.00000 0.005594
73680.00000 0.005621
73690.00000 0.005651
73700.00000 0.005684
73710.00000 0.005721
73720.00000 0.005765
73730.00000 0.005816
73740.00000 0.005874
73750.00000 0.005939
73760.00000 0.006013
73770.00000 0.006095
73780.00000 0.006184
73790.00000 0.006282
73800.00000 0.006385
73810.00000 0.006494
73820.00000 0.006608
73830.00000 0.006723
73840.00000 0.00684
73850.00000 0.006957
73860.00000 0.00707
73870.00000 0.007181
73880.00000 0.00729
73890.00000 0.007396
73900.00000 0.0075
73910.00000 0.007605
73920.00000 0.00771
73930.00000 0.007816
73940.00000 0.007926
73950.00000 0.008039
73960.00000 0.008154
73970.00000 0.008269
73980.00000 0.008385
73990.00000 0.008498
74000.00000 0.008606
74010.00000 0.008709
74020.00000 0.008808
74030.00000 0.008902
74040.00000 0.008993
74050.00000 0.009088
74060.00000 0.009184
74070.00000 0.009286
74080.00000 0.009399
74090.00000 0.009522
74100.00000 0.009652
74110.00000 0.00979
74120.00000 0.009935
74130.00000 0.010079
74140.00000 0.01022
74150.00000 0.010358
74160.00000 0.010485
74170.00000 0.010602
74180.00000 0.010711
74190.00000 0.010812
74200.00000 0.010905
74210.00000 0.010998
74220.00000 0.011094
74230.00000 0.011193
74240.00000 0.011301
74250.00000 0.011421
74260.00000 0.011551
74270.00000 0.01169
74280.00000 0.011841
74290.00000 0.011999
74300.00000 0.012159
74310.00000 0.012323
74320.00000 0.012488
74330.00000 0.012651
74340.00000 0.012814
74350.00000 0.012978
74360.00000 0.013145
74370.00000 0.013314
74380.00000 0.01349
74390.00000 0.013673
74400.00000 0.013861
74410.00000 0.014054
74420.00000 0.014253
74430.00000 0.014451
74440.00000 0.014645
74450.00000 0.014837
74460.00000 0.015019
74470.00000 0.01519
74480.00000 0.015351
74490.00000 0.015501
74500.00000 0.015637
74510.00000 0.015764
74520.00000 0.015889
74530.00000 0.016007
74540.00000 0.016131
74550.00000 0.016271
74560.00000 0.016421
74570.00000 0.016597
74580.00000 0.016808
74590.00000 0.017049
74600.00000 0.017322
74610.00000 0.017633
74620.00000 0.017973
74630.00000 0.018326
74640.00000 0.018699
74650.00000 0.019077
74660.00000 0.019441
74670.00000 0.019798
74680.00000 0.02014
74690.00000 0.020456
74700.00000 0.020751
74710.00000 0.021029
74720.00000 0.021286
74730.00000 0.021524
74740.00000 0.021755
74750.00000 0.021975
74760.00000 0.022187
74770.00000 0.022401
74780.00000 0.022612
74790.00000 0.022826
74800.00000 0.023047
74810.00000 0.023274
74820.00000 0.023508
74830.00000 0.023752
74840.00000 0.024005
74850.00000 0.024266
74860.00000 0.024537
74870.00000 0.024817
74880.00000 0.025106
74890.00000 0.025404
74900.00000 0.025711
74910.00000 0.026026
74920.00000 0.026351
74930.00000 0.026684
74940.00000 0.027025
74950.00000 0.027374
74960.00000 0.027732
74970.00000 0.028097
74980.00000 0.028471
74990.00000 0.028853
75000.00000 0.029244
75010.00000 0.029644
75020.00000 0.030051
75030.00000 0.030465
75040.00000 0.030887
75050.00000 0.03131
75060.00000 0.031738
75070.00000 0.032167
75080.00000 0.032597
75090.00000 0.033025
75100.00000 0.033458
75110.00000 0.033895
75120.00000 0.034337
75130.00000 0.034791
75140.00000 0.03526
75150.00000 0.035743
75160.00000 0.036247
75170.00000 0.036774
75180.00000 0.037321
75190.00000 0.037884
75200.00000 0.038464
75210.00000 0.039058
75220.00000 0.039654
75230.00000 0.040258
75240.00000 0.040861
75250.00000 0.041457
75260.00000 0.042047
75270.00000 0.042634
75280.00000 0.043217
75290.00000 0.043796
75300.00000 0.044376
75310.00000 0.044958
75320.00000 0.045542
75330.00000 0.046134
75340.00000 0.046736
75350.00000 0.047346
75360.00000 0.047969
75370.00000 0.048601
75380.00000 0.049246
75390.00000 0.049909
75400.00000 0.05059
75410.00000 0.051288
75420.00000 0.052005
75430.00000 0.052739
75440.00000 0.05349
75450.00000 0.054254
75460.00000 0.055035
75470.00000 0.055825
75480.00000 0.056619
75490.00000 0.057419
75500.00000 0.058224
75510.00000 0.059032
75520.00000 0.059845
75530.00000 0.060661
75540.00000 0.061477
75550.00000 0.062298
75560.00000 0.063128
75570.00000 0.063964
75580.00000 0.064811
75590.00000 0.065673
75600.00000 0.066549
75610.00000 0.067442
75620.00000 0.068359
75630.00000 0.069298
75640.00000 0.070258
75650.00000 0.071241
75660.00000 0.072245
75670.00000 0.073271
75680.00000 0.074318
75690.00000 0.075385
75700.00000 0.076478
75710.00000 0.077595
75720.00000 0.078739
75730.00000 0.079915
75740.00000 0.081126
75750.00000 0.08237
75760.00000 0.083644
75770.00000 0.084956
75780.00000 0.086292
75790.00000 0.087638
75800.00000 0.089002
75810.00000 0.09037
75820.00000 0.091723
75830.00000 0.093067
75840.00000 0.094403
75850.00000 0.095727
75860.00000 0.097035
75870.00000 0.098357
75880.00000 0.099709
75890.00000 0.101081
75900.00000 0.102499
75910.00000 0.103981
75920.00000 0.105515
75930.00000 0.107098
75940.00000 0.108739
75950.00000 0.110427
75960.00000 0.112131
75970.00000 0.113849
75980.00000 0.115581
75990.00000 0.117311
76000.00000 0.119036
76010.00000 0.120764
76020.00000 0.122496
76030.00000 0.124226
76040.00000 0.125968
76050.00000 0.127741
76060.00000 0.129537
76070.00000 0.131366
76080.00000 0.133239
76090.00000 0.135149
76100.00000 0.137108
76110.00000 0.139128
76120.00000 0.141206
76130.00000 0.143332
76140.00000 0.145507
76150.00000 0.147732
76160.00000 0.14999
76170.00000 0.152276
76180.00000 0.154593
76190.00000 0.156915
76200.00000 0.15923
76210.00000 0.161547
76220.00000 0.163864
76230.00000 0.166174
76240.00000 0.168485
76250.00000 0.170814
76260.00000 0.173152
76270.00000 0.175512
76280.00000 0.177923
76290.00000 0.180382
76300.00000 0.18289
76310.00000 0.185455
76320.00000 0.188079
76330.00000 0.190758
76340.00000 0.19349
76350.00000 0.196277
76360.00000 0.199115
76370.00000 0.201998
76380.00000 0.204926
76390.00000 0.207904
76400.00000 0.210934
76410.00000 0.214017
76420.00000 0.217145
76430.00000 0.220314
76440.00000 0.223528
76450.00000 0.226771
76460.00000 0.230033
76470.00000 0.23332
76480.00000 0.236624
76490.00000 0.239937
76500.00000 0.243263
76510.00000 0.246616
76520.00000 0.249997
76530.00000 0.253405
76540.00000 0.256859
76550.00000 0.260364
76560.00000 0.263916
76570.00000 0.267517
76580.00000 0.271172
76590.00000 0.274875
76600.00000 0.278612
76610.00000 0.282388
76620.00000 0.286197
76630.00000 0.290024
76640.00000 0.293867
76650.00000 0.297729
76660.00000 0.301611
76670.00000 0.305508
76680.00000 0.309428
76690.00000 0.313383
76700.00000 0.317365
76710.00000 0.321387
76720.00000 0.325467
76730.00000 0.329601
76740.00000 0.333792
76750.00000 0.338048
76760.00000 0.342367
76770.00000 0.346747
76780.00000 0.351187
76790.00000 0.355692
76800.00000 0.36025
76810.00000 0.364846
76820.00000 0.369488
76830.00000 0.374166
76840.00000 0.37887
76850.00000 0.383608
76860.00000 0.388369
76870.00000 0.393144
76880.00000 0.397938
76890.00000 0.402751
76900.00000 0.407582
76910.00000 0.412433
76920.00000 0.4173
76930.00000 0.42218
76940.00000 0.427076
76950.00000 0.431983
76960.00000 0.436901
76970.00000 0.44183
76980.00000 0.446764
76990.00000 0.451697
77000.00000 0.456631
77010.00000 0.461571
77020.00000 0.466515
77030.00000 0.471463
77040.00000 0.476427
77050.00000 0.481409
77060.00000 0.486406
77070.00000 0.491432
77080.00000 0.496492
77090.00000 0.501582
77100.00000 0.506697
77110.00000 0.511841
77120.00000 0.517012
77130.00000 0.522187
77140.00000 0.527365
77150.00000 0.532548
77160.00000 0.537712
77170.00000 0.542849
77180.00000 0.547967
77190.00000 0.553056
77200.00000 0.55811
77210.00000 0.563135
77220.00000 0.568135
77230.00000 0.57311
77240.00000 0.57806
77250.00000 0.582995
77260.00000 0.587916
77270.00000 0.592822
77280.00000 0.597713
77290.00000 0.602593
77300.00000 0.607458
77310.00000 0.612301
77320.00000 0.617123
77330.00000 0.621922
77340.00000 0.626687
77350.00000 0.631417
77360.00000 0.636112
77370.00000 0.640767
77380.00000 0.645379
77390.00000 0.64995
77400.00000 0.654478
77410.00000 0.658961
77420.00000 0.663401
77430.00000 0.667799
77440.00000 0.672159
77450.00000 0.676476
77460.00000 0.680746
77470.00000 0.684969
77480.00000 0.689144
77490.00000 0.693261
77500.00000 0.697323
77510.00000 0.701327
77520.00000 0.705261
77530.00000 0.709119
77540.00000 0.712908
77550.00000 0.716635
77560.00000 0.720297
77570.00000 0.723899
77580.00000 0.727457
77590.00000 0.73097
77600.00000 0.73444
77610.00000 0.737887
77620.00000 0.741322
77630.00000 0.744734
77640.00000 0.748111
77650.00000 0.751458
77660.00000 0.75477
77670.00000 0.75803
77680.00000 0.761242
77690.00000 0.764401
77700.00000 0.767486
77710.00000 0.770489
77720.00000 0.773418
77730.00000 0.776277
77740.00000 0.779065
77750.00000 0.781784
77760.00000 0.784434
77770.00000 0.787013
77780.00000 0.789524
77790.00000 0.791975
77800.00000 0.794372
77810.00000 0.796712
77820.00000 0.798986
77830.00000 0.801193
77840.00000 0.803335
77850.00000 0.805408
77860.00000 0.807415
77870.00000 0.809354
77880.00000 0.811218
77890.00000 0.812999
77900.00000 0.814702
77910.00000 0.816337
77920.00000 0.817905
77930.00000 0.819404
77940.00000 0.820845
77950.00000 0.822232
77960.00000 0.823559
77970.00000 0.824844
77980.00000 0.826096
77990.00000 0.827309
78000.00000 0.828486
78010.00000 0.829627
78020.00000 0.830733
78030.00000 0.8318
78040.00000 0.832828
78050.00000 0.833818
78060.00000 0.83476
78070.00000 0.835646
78080.00000 0.836481
78090.00000 0.837259
78100.00000 0.837975
78110.00000 0.838629
78120.00000 0.839226
78130.00000 0.839769
78140.00000 0.840251
78150.00000 0.84069
78160.00000 0.8411
78170.00000 0.841472
78180.00000 0.841821
78190.00000 0.842169
78200.00000 0.842507
78210.00000 0.84284
78220.00000 0.843174
78230.00000 0.843513
78240.00000 0.843849
78250.00000 0.844174
78260.00000 0.844494
78270.00000 0.844801
78280.00000 0.845077
78290.00000 0.845326
78300.00000 0.845546
78310.00000 0.845729
78320.00000 0.845875
78330.00000 0.845983
78340.00000 0.846051
78350.00000 0.846076
78360.00000 0.84606
78370.00000 0.846006
78380.00000 0.845914
78390.00000 0.845784
78400.00000 0.845615
78410.00000 0.845406
78420.00000 0.845159
78430.00000 0.844877
78440.00000 0.844561
78450.00000 0.84421
78460.00000 0.843827
78470.00000 0.843412
78480.00000 0.842964
78490.00000 0.842492
78500.00000 0.842001
78510.00000 0.841487
78520.00000 0.840958
78530.00000 0.840418
78540.00000 0.839864
78550.00000 0.839305
78560.00000 0.83875
78570.00000 0.838194
78580.00000 0.837642
78590.00000 0.837098
78600.00000 0.836561
78610.00000 0.836031
78620.00000 0.835513
78630.00000 0.835008
78640.00000 0.834512
78650.00000 0.834018
78660.00000 0.833533
78670.00000 0.833049
78680.00000 0.83256
78690.00000 0.832067
78700.00000 0.831568
78710.00000 0.831054
78720.00000 0.830523
78730.00000 0.829977
78740.00000 0.829419
78750.00000 0.828845
78760.00000 0.828258
78770.00000 0.827665
78780.00000 0.827066
78790.00000 0.826461
78800.00000 0.825853
78810.00000 0.825248
78820.00000 0.824642
78830.00000 0.824034
78840.00000 0.82342
78850.00000 0.822804
78860.00000 0.822182
78870.00000 0.821552
78880.00000 0.820914
78890.00000 0.820271
78900.00000 0.819625
78910.00000 0.818974
78920.00000 0.818322
78930.00000 0.817677
78940.00000 0.817034
78950.00000 0.816399
78960.00000 0.815779
78970.00000 0.815172
78980.00000 0.81458
78990.00000 0.814007
79000.00000 0.813454
79010.00000 0.812921
79020.00000 0.812406
79030.00000 0.811912
79040.00000 0.811438
79050.00000 0.810974
79060.00000 0.810522
79070.00000 0.810082
79080.00000 0.809644
79090.00000 0.809203
79100.00000 0.808762
79110.00000 0.808316
79120.00000 0.80786
79130.00000 0.807395
79140.00000 0.806924
79150.00000 0.806445
79160.00000 0.805958
79170.00000 0.805467
79180.00000 0.804978
79190.00000 0.804489
79200.00000 0.804
79210.00000 0.803516
79220.00000 0.803034
79230.00000 0.802556
79240.00000 0.802083
79250.00000 0.801612
79260.00000 0.801146
79270.00000 0.80069
79280.00000 0.800242
79290.00000 0.799802
79300.00000 0.799385
79310.00000 0.798997
79320.00000 0.798632
79330.00000 0.798297
79340.00000 0.798
79350.00000 0.79774
79360.00000 0.797507
79370.00000 0.797297
79380.00000 0.797119
79390.00000 0.796954
79400.00000 0.796782
79410.00000 0.796611
79420.00000 0.796434
79430.00000 0.796234
79440.00000 0.796011
79450.00000 0.795768
79460.00000 0.795507
79470.00000 0.795222
79480.00000 0.794919
79490.00000 0.794615
79500.00000 0.794316
79510.00000 0.794015
79520.00000 0.793727
79530.00000 0.793461
79540.00000 0.79321
79550.00000 0.792978
79560.00000 0.79277
79570.00000 0.792584
79580.00000 0.792418
79590.00000 0.792266
79600.00000 0.792131
79610.00000 0.79201
79620.00000 0.791901
79630.00000 0.791805
79640.00000 0.791721
79650.00000 0.791642
79660.00000 0.791568
79670.00000 0.7915
79680.00000 0.791432
79690.00000 0.791363
79700.00000 0.791293
79710.00000 0.791224
79720.00000 0.791152
79730.00000 0.791078
79740.00000 0.79101
79750.00000 0.790955
79760.00000 0.790908
79770.00000 0.790876
79780.00000 0.790869
79790.00000 0.790883
79800.00000 0.790921
79810.00000 0.790988
79820.00000 0.791086
79830.00000 0.791211
79840.00000 0.791364
79850.00000 0.791545
79860.00000 0.791753
79870.00000 0.791983
79880.00000 0.792233
79890.00000 0.792506
79900.00000 0.792794
79910.00000 0.79309
79920.00000 0.793401
79930.00000 0.793719
79940.00000 0.794037
79950.00000 0.794357
79960.00000 0.794679
79970.00000 0.794998
79980.00000 0.795314
79990.00000 0.795627
80000.00000 0.79594
80010.00000 0.796251
80020.00000 0.796561
80030.00000 0.796875
80040.00000 0.797197
80050.00000 0.797523
80060.00000 0.797856
80070.00000 0.798198
80080.00000 0.798548
80090.00000 0.798904
80100.00000 0.799265
80110.00000 0.799633
80120.00000 0.800006
80130.00000 0.80038
80140.00000 0.800755
80150.00000 0.801134
80160.00000 0.80152
80170.00000 0.801913
80180.00000 0.802314
80190.00000 0.802727
80200.00000 0.803157
80210.00000 0.8036
80220.00000 0.80406
80230.00000 0.804539
80240.00000 0.805038
80250.00000 0.805551
80260.00000 0.806072
80270.00000 0.806606
80280.00000 0.807148
80290.00000 0.807692
80300.00000 0.808237
80310.00000 0.808786
80320.00000 0.809334
80330.00000 0.809881
80340.00000 0.810427
80350.00000 0.810978
80360.00000 0.811535
80370.00000 0.812096
80380.00000 0.812664
80390.00000 0.81324
80400.00000 0.813823
80410.00000 0.814413
80420.00000 0.815008
80430.00000 0.815608
80440.00000 0.816213
80450.00000 0.816823
80460.00000 0.817434
80470.00000 0.81805
80480.00000 0.818675
80490.00000 0.819312
80500.00000 0.819958
80510.00000 0.820617
80520.00000 0.821295
80530.00000 0.821988
80540.00000 0.822696
80550.00000 0.823416
80560.00000 0.824152
80570.00000 0.824898
80580.00000 0.825648
80590.00000 0.8264
80600.00000 0.827156
80610.00000 0.827913
80620.00000 0.828669
80630.00000 0.829423
80640.00000 0.83018
80650.00000 0.830942
80660.00000 0.831707
80670.00000 0.832477
80680.00000 0.833254
80690.00000 0.834041
80700.00000 0.834834
80710.00000 0.835627
80720.00000 0.836421
80730.00000 0.837217
80740.00000 0.838004
80750.00000 0.838776
80760.00000 0.839537
80770.00000 0.840287
80780.00000 0.841022
80790.00000 0.841738
80800.00000 0.842446
80810.00000 0.84316
80820.00000 0.843872
80830.00000 0.844587
80840.00000 0.845325
80850.00000 0.846091
80860.00000 0.84688
80870.00000 0.847694
80880.00000 0.84854
80890.00000 0.84942
80900.00000 0.850318
80910.00000 0.851221
80920.00000 0.852142
80930.00000 0.853065
80940.00000 0.853968
80950.00000 0.854853
80960.00000 0.855723
80970.00000 0.856566
80980.00000 0.857377
80990.00000 0.858159
81000.00000 0.858921
81010.00000 0.859666
81020.00000 0.860388
81030.00000 0.861098
81040.00000 0.86181
81050.00000 0.862518
81060.00000 0.863226
81070.00000 0.863943
81080.00000 0.864672
81090.00000 0.865409
81100.00000 0.866158
81110.00000 0.86692
81120.00000 0.867696
81130.00000 0.868482
81140.00000 0.869276
81150.00000 0.870081
81160.00000 0.870895
81170.00000 0.871711
81180.00000 0.87253
81190.00000 0.873352
81200.00000 0.874177
81210.00000 0.875002
81220.00000 0.875829
81230.00000 0.876657
81240.00000 0.877486
81250.00000 0.878317
81260.00000 0.879147
81270.00000 0.879974
81280.00000 0.880803
81290.00000 0.881627
81300.00000 0.882439
81310.00000 0.883238
81320.00000 0.884026
81330.00000 0.884795
81340.00000 0.885538
81350.00000 0.88626
81360.00000 0.88696
81370.00000 0.887635
81380.00000 0.888284
81390.00000 0.88891
81400.00000 0.889523
81410.00000 0.890119
81420.00000 0.890699
81430.00000 0.891274
81440.00000 0.891849
81450.00000 0.892418
81460.00000 0.892988
81470.00000 0.893565
81480.00000 0.894147
81490.00000 0.894734
81500.00000 0.895326
81510.00000 0.895924
81520.00000 0.896526
81530.00000 0.897131
81540.00000 0.897738
81550.00000 0.898348
81560.00000 0.898957
81570.00000 0.899561
81580.00000 0.900164
81590.00000 0.900761
81600.00000 0.901342
81610.00000 0.90191
81620.00000 0.902464
81630.00000 0.902997
81640.00000 0.903502
81650.00000 0.903985
81660.00000 0.904443
81670.00000 0.904874
81680.00000 0.905275
81690.00000 0.905652
81700.00000 0.906011
81710.00000 0.90635
81720.00000 0.906669
81730.00000 0.906977
81740.00000 0.907278
81750.00000 0.907568
81760.00000 0.907851
81770.00000 0.908133
81780.00000 0.908413
81790.00000 0.908689
81800.00000 0.908962
81810.00000 0.909233
81820.00000 0.909502
81830.00000 0.909768
81840.00000 0.910032
81850.00000 0.910295
81860.00000 0.910554
81870.00000 0.910806
81880.00000 0.911053
81890.00000 0.911294
81900.00000 0.911525
81910.00000 0.911747
81920.00000 0.911961
81930.00000 0.91216
81940.00000 0.912339
81950.00000 0.912502
81960.00000 0.912648
81970.00000 0.912778
81980.00000 0.912888
81990.00000 0.912982
82000.00000 0.913062
82010.00000 0.913127
82020.00000 0.913178
82030.00000 0.913216
82040.00000 0.913247
82050.00000 0.913269
82060.00000 0.913279
82070.00000 0.913271
82080.00000 0.913249
82090.00000 0.913211
82100.00000 0.913148
82110.00000 0.91306
82120.00000 0.912948
82130.00000 0.912809
82140.00000 0.912639
82150.00000 0.912436
82160.00000 0.912207
82170.00000 0.911961
82180.00000 0.911693
82190.00000 0.911406
82200.00000 0.91111
82210.00000 0.910814
82220.00000 0.910509
82230.00000 0.910204
82240.00000 0.90991
82250.00000 0.909624
82260.00000 0.909344
82270.00000 0.909068
82280.00000 0.908798
82290.00000 0.908534
82300.00000 0.908269
82310.00000 0.907998
82320.00000 0.907726
82330.00000 0.907447
82340.00000 0.907151
82350.00000 0.906841
82360.00000 0.906517
82370.00000 0.906173
82380.00000 0.905806
82390.00000 0.90542
82400.00000 0.905011
82410.00000 0.904578
82420.00000 0.904119
82430.00000 0.903637
82440.00000 0.903135
82450.00000 0.90261
82460.00000 0.902064
82470.00000 0.901501
82480.00000 0.900925
82490.00000 0.900332
82500.00000 0.899728
82510.00000 0.899119
82520.00000 0.898505
82530.00000 0.897884
82540.00000 0.897263
82550.00000 0.896645
82560.00000 0.896026
82570.00000 0.895408
82580.00000 0.89479
82590.00000 0.894173
82600.00000 0.893556
82610.00000 0.892933
82620.00000 0.892306
82630.00000 0.891674
82640.00000 0.891032
82650.00000 0.890374
82660.00000 0.889704
82670.00000 0.88902
82680.00000 0.888317
82690.00000 0.887595
82700.00000 0.886856
82710.00000 0.886101
