# %ECSV 0.9
# ---
# datatype:
# - {name: wavelength, unit: Angstrom, datatype: float32}
# - {name: response, datatype: float32}
# meta: !!omap
# - {band_name: F160W}
# - {group_name: NICMOS2}
wavelength response
12128.20215 0.0
13475.78027 0.000401
13476.46973 0.000404
13477.16016 0.000407
13477.84961 0.00041
13478.54004 0.000413
13479.23047 0.000416
13479.91992 0.000419
13480.62012 0.000425
13481.30957 0.000431
13482.00000 0.000438
13482.69043 0.000444
13483.37988 0.00045
13484.07031 0.000456
13484.75977 0.000463
13485.45020 0.000466
13486.13965 0.000469
13486.83984 0.000471
13487.53027 0.000473
13488.21973 0.000476
13488.91016 0.000478
13489.59961 0.00048
13490.29004 0.000484
13490.98047 0.000489
13491.67969 0.000494
13492.37012 0.000499
13493.05957 0.000504
13493.75000 0.000509
13494.44043 0.000514
13495.12988 0.000518
13495.83008 0.000522
13496.51953 0.000525
13497.20996 0.000529
13497.90039 0.000532
13498.58984 0.000535
13499.29004 0.000539
13499.98047 0.000542
13500.66992 0.000548
13501.36035 0.000554
13502.04980 0.00056
13502.75000 0.000565
13503.44043 0.000571
13504.12988 0.000577
13504.82031 0.000583
13505.51953 0.000591
13506.20996 0.000599
13506.90039 0.000608
13507.58984 0.000617
13508.29004 0.000625
13508.98047 0.000634
13509.66992 0.000643
13510.36035 0.000649
13511.05957 0.000654
13511.75000 0.000658
13512.44043 0.000663
13513.12988 0.000667
13513.83008 0.000672
13514.51953 0.000677
13515.20996 0.000682
13515.90039 0.000689
13516.59961 0.000695
13517.29004 0.000702
13517.98047 0.000709
13518.67969 0.000715
13519.37012 0.000722
13520.05957 0.000729
13520.75977 0.000736
13521.45020 0.000744
13522.13965 0.000752
13522.83008 0.000759
13523.53027 0.000767
13524.21973 0.000775
13524.91992 0.000782
13525.61035 0.000791
13526.29980 0.000801
13527.00000 0.00081
13527.69043 0.000819
13528.37988 0.000828
13529.08008 0.000838
13529.76953 0.000847
13530.45996 0.000855
13531.16016 0.000863
13531.84961 0.00087
13532.54004 0.000878
13533.24023 0.000885
13533.92969 0.000893
13534.62988 0.0009
13535.32031 0.00091
13536.00977 0.000922
13536.70996 0.000934
13537.40039 0.000946
13538.08984 0.000958
13538.79004 0.000969
13539.48047 0.000981
13540.17969 0.000993
13540.87012 0.001003
13541.55957 0.001014
13542.25977 0.001025
13542.95020 0.001035
13543.65039 0.001046
13544.33984 0.001056
13545.04004 0.001067
13545.73047 0.001081
13546.41992 0.001094
13547.12012 0.001108
13547.80957 0.001121
13548.50977 0.001135
13549.20020 0.001149
13549.90039 0.001162
13550.58984 0.001176
13551.29004 0.00119
13551.98047 0.001204
13552.67969 0.001218
13553.37012 0.001232
13554.07031 0.001246
13554.75977 0.00126
13555.45996 0.001273
13556.15039 0.001284
13556.84961 0.001295
13557.54004 0.001306
13558.24023 0.001317
13558.92969 0.001329
13559.62988 0.00134
13560.32031 0.001353
13561.01953 0.001368
13561.70996 0.001383
13562.41016 0.001398
13563.09961 0.001413
13563.79980 0.001429
13564.49023 0.001444
13565.19043 0.001459
13565.87988 0.001477
13566.58008 0.001494
13567.26953 0.001511
13567.96973 0.001528
13568.66992 0.001546
13569.36035 0.001563
13570.05957 0.00158
13570.75000 0.001595
13571.45020 0.001609
13572.13965 0.001624
13572.83984 0.001639
13573.54004 0.001653
13574.23047 0.001668
13574.92969 0.001683
13575.62012 0.001702
13576.32031 0.001722
13577.00977 0.001742
13577.70996 0.001762
13578.41016 0.001782
13579.09961 0.001802
13579.79980 0.001822
13580.50000 0.001842
13581.19043 0.001862
13581.88965 0.001882
13582.58008 0.001902
13583.28027 0.001922
13583.98047 0.001942
13584.66992 0.001962
13585.37012 0.001983
13586.07031 0.002004
13586.75977 0.002025
13587.45996 0.002046
13588.15039 0.002067
13588.84961 0.002088
13589.54980 0.002109
13590.24023 0.002131
13590.94043 0.002157
13591.63965 0.002182
13592.33008 0.002207
13593.03027 0.002233
13593.73047 0.002258
13594.41992 0.002284
13595.12012 0.002309
13595.82031 0.002332
13596.51953 0.002356
13597.20996 0.002379
13597.91016 0.002403
13598.61035 0.002426
13599.29980 0.00245
13600.00000 0.002474
13600.70020 0.002502
13601.40039 0.00253
13602.08984 0.002558
13602.79004 0.002587
13603.49023 0.002615
13604.19043 0.002643
13604.87988 0.002672
13605.58008 0.002699
13606.28027 0.002726
13606.96973 0.002752
13607.66992 0.002779
13608.37012 0.002806
13609.07031 0.002833
13609.76953 0.002859
13610.45996 0.002892
13611.16016 0.002927
13611.86035 0.002962
13612.55957 0.002997
13613.25000 0.003032
13613.95020 0.003067
13614.65039 0.003102
13615.34961 0.003136
13616.04980 0.00317
13616.74023 0.003205
13617.44043 0.003239
13618.13965 0.003273
13618.83984 0.003307
13619.54004 0.003341
13620.23047 0.003376
13620.92969 0.003411
13621.62988 0.003447
13622.33008 0.003482
13623.03027 0.003518
13623.73047 0.003553
13624.41992 0.003588
13625.12012 0.003624
13625.82031 0.00366
13626.51953 0.003696
13627.21973 0.003731
13627.91992 0.003767
13628.62012 0.003803
13629.30957 0.003839
13630.00977 0.003875
13630.70996 0.003911
13631.41016 0.003948
13632.11035 0.003984
13632.80957 0.004021
13633.50977 0.004057
13634.20996 0.004093
13634.91016 0.00413
13635.59961 0.004168
13636.29980 0.004207
13637.00000 0.004246
13637.70020 0.004284
13638.40039 0.004323
13639.09961 0.004362
13639.79980 0.004401
13640.50000 0.004438
13641.20020 0.004475
13641.90039 0.004512
13642.59961 0.004549
13643.29004 0.004586
13643.99023 0.004623
13644.69043 0.00466
13645.38965 0.004704
13646.08984 0.004752
13646.79004 0.0048
13647.49023 0.004849
13648.19043 0.004898
13648.88965 0.004946
13649.58984 0.004995
13650.29004 0.005042
13650.99023 0.005087
13651.69043 0.005132
13652.38965 0.005178
13653.08984 0.005223
13653.79004 0.005268
13654.49023 0.005314
13655.19043 0.005358
13655.88965 0.0054
13656.58984 0.005442
13657.29004 0.005484
13657.99023 0.005526
13658.69043 0.005567
13659.38965 0.005609
13660.08984 0.005652
13660.79004 0.0057
13661.49023 0.005748
13662.19043 0.005796
13662.88965 0.005845
13663.58984 0.005893
13664.29004 0.005941
13664.99023 0.005989
13665.69043 0.006035
13666.38965 0.006081
13667.08984 0.006127
13667.79980 0.006173
13668.50000 0.006219
13669.20020 0.006265
13669.90039 0.00631
13670.59961 0.006361
13671.29980 0.006413
13672.00000 0.006465
13672.70020 0.006517
13673.40039 0.006568
13674.09961 0.00662
13674.79980 0.006672
13675.50000 0.006723
13676.20996 0.006775
13676.91016 0.006826
13677.61035 0.006878
13678.30957 0.006929
13679.00977 0.006981
13679.70996 0.007032
13680.41016 0.007085
13681.11035 0.00714
13681.82031 0.007195
13682.51953 0.007249
13683.21973 0.007303
13683.91992 0.007358
13684.62012 0.007413
13685.32031 0.007468
13686.01953 0.007523
13686.73047 0.007579
13687.42969 0.007634
13688.12988 0.00769
13688.83008 0.007745
13689.53027 0.007801
13690.24023 0.007856
13690.94043 0.007912
13691.63965 0.007967
13692.33984 0.008022
13693.04004 0.008078
13693.74023 0.008133
13694.45020 0.008189
13695.15039 0.008243
13695.84961 0.008293
13696.54980 0.008343
13697.25000 0.008393
13697.95996 0.008444
13698.66016 0.008494
13699.36035 0.008544
13700.05957 0.008595
13700.76953 0.008651
13701.46973 0.008707
13702.16992 0.008764
13702.87012 0.00882
13703.58008 0.008876
13704.28027 0.008933
13704.98047 0.008989
13705.67969 0.00905
13706.38965 0.00911
13707.08984 0.00917
13707.79004 0.009231
13708.49023 0.009291
13709.20020 0.009351
13709.90039 0.009412
13710.59961 0.009471
13711.29980 0.00953
13712.00977 0.00959
13712.70996 0.009649
13713.41016 0.009708
13714.12012 0.009768
13714.82031 0.009827
13715.51953 0.009889
13716.23047 0.009951
13716.92969 0.010013
13717.62988 0.010076
13718.33984 0.010138
13719.04004 0.010201
13719.74023 0.010263
13720.45020 0.01033
13721.15039 0.010398
13721.84961 0.010467
13722.55957 0.010535
13723.25977 0.010604
13723.95996 0.010672
13724.66992 0.010741
13725.37012 0.010807
13726.07031 0.010872
13726.78027 0.010937
13727.48047 0.011001
13728.17969 0.011066
13728.88965 0.011131
13729.58984 0.011195
13730.29980 0.011259
13731.00000 0.01132
13731.70020 0.011381
13732.41016 0.011442
13733.11035 0.011504
13733.82031 0.011565
13734.51953 0.011626
13735.21973 0.01169
13735.92969 0.01176
13736.62988 0.011829
13737.33984 0.011898
13738.04004 0.011968
13738.75000 0.012037
13739.45020 0.012107
13740.15039 0.012175
13740.86035 0.01224
13741.55957 0.012305
13742.26953 0.01237
13742.96973 0.012435
13743.67969 0.0125
13744.37988 0.012565
13745.08008 0.012631
13745.79004 0.01271
13746.49023 0.012788
13747.20020 0.012866
13747.90039 0.012945
13748.61035 0.013023
13749.30957 0.013102
13750.01953 0.01318
13750.71973 0.013263
13751.42969 0.013346
13752.12988 0.01343
13752.83984 0.013513
13753.54004 0.013596
13754.25000 0.013679
13754.95020 0.013763
13755.66016 0.013854
13756.36035 0.013945
13757.07031 0.014037
13757.76953 0.014129
13758.48047 0.014221
13759.17969 0.014312
13759.88965 0.014404
13760.58984 0.01449
13761.29980 0.014575
13762.00977 0.014659
13762.70996 0.014744
13763.41992 0.014829
13764.12012 0.014913
13764.83008 0.014998
13765.53027 0.01509
13766.24023 0.015185
13766.95020 0.015279
13767.65039 0.015374
13768.36035 0.015468
13769.05957 0.015563
13769.76953 0.015657
13770.46973 0.015755
13771.17969 0.015854
13771.88965 0.015953
13772.58984 0.016052
13773.29980 0.016151
13774.00000 0.01625
13774.70996 0.016349
13775.41992 0.016451
13776.12012 0.016554
13776.83008 0.016657
13777.54004 0.016761
13778.24023 0.016864
13778.95020 0.016968
13779.65039 0.017071
13780.36035 0.017178
13781.07031 0.017288
13781.76953 0.017398
13782.48047 0.017509
13783.19043 0.017619
13783.88965 0.017729
13784.59961 0.017839
13785.30957 0.017957
13786.00977 0.018083
13786.71973 0.018209
13787.42969 0.018335
13788.12988 0.018461
13788.83984 0.018587
13789.54980 0.018714
13790.25000 0.018842
13790.95996 0.018974
13791.66992 0.019106
13792.37012 0.019238
13793.08008 0.01937
13793.79004 0.019502
13794.50000 0.019634
13795.20020 0.019772
13795.91016 0.019926
13796.62012 0.020081
13797.33008 0.020235
13798.03027 0.02039
13798.74023 0.020544
13799.45020 0.020699
13800.15039 0.02085
13800.86035 0.020991
13801.57031 0.021131
13802.28027 0.021272
13802.98047 0.021412
13803.69043 0.021553
13804.40039 0.021694
13805.11035 0.021837
13805.82031 0.021997
13806.51953 0.022157
13807.23047 0.022316
13807.94043 0.022476
13808.65039 0.022636
13809.34961 0.022796
13810.05957 0.022958
13810.76953 0.023146
13811.48047 0.023333
13812.19043 0.02352
13812.88965 0.023707
13813.59961 0.023894
13814.30957 0.024081
13815.01953 0.024269
13815.73047 0.024479
13816.44043 0.024688
13817.13965 0.024898
13817.84961 0.025107
13818.55957 0.025317
13819.26953 0.025527
13819.98047 0.025736
13820.69043 0.025964
13821.38965 0.026193
13822.09961 0.026422
13822.80957 0.02665
13823.51953 0.026879
13824.23047 0.027108
13824.94043 0.027337
13825.65039 0.027561
13826.34961 0.027785
13827.05957 0.02801
13827.76953 0.028234
13828.48047 0.028458
13829.19043 0.028682
13829.90039 0.028906
13830.61035 0.029154
13831.32031 0.029406
13832.03027 0.029658
13832.74023 0.02991
13833.44043 0.030162
13834.15039 0.030413
13834.86035 0.030665
13835.57031 0.03092
13836.28027 0.031175
13836.99023 0.03143
13837.70020 0.031686
13838.41016 0.031941
13839.12012 0.032196
13839.83008 0.032452
13840.54004 0.032725
13841.25000 0.033005
13841.95996 0.033285
13842.66992 0.033564
13843.37988 0.033844
13844.08008 0.034124
13844.79004 0.034404
13845.50000 0.034701
13846.20996 0.035004
13846.91992 0.035308
13847.62988 0.035612
13848.33984 0.035916
13849.04980 0.03622
13849.75977 0.036524
13850.46973 0.036861
13851.17969 0.037214
13851.88965 0.037568
13852.59961 0.037922
13853.30957 0.038275
13854.01953 0.038629
13854.73047 0.038982
13855.45020 0.039336
13856.16016 0.039689
13856.87012 0.040043
13857.58008 0.040397
13858.29004 0.04075
13859.00000 0.041105
13859.70996 0.041458
13860.41992 0.041825
13861.12988 0.042201
13861.83984 0.042576
13862.54980 0.042952
13863.25977 0.043328
13863.96973 0.043704
13864.67969 0.04408
13865.38965 0.044469
13866.09961 0.044867
13866.80957 0.045266
13867.51953 0.045664
13868.24023 0.046063
13868.95020 0.046462
13869.66016 0.046861
13870.37012 0.047287
13871.08008 0.047739
13871.79004 0.048191
13872.50000 0.048643
13873.20996 0.049095
13873.91992 0.049547
13874.63965 0.05
13875.34961 0.050476
13876.05957 0.050976
13876.76953 0.051478
13877.48047 0.051978
13878.19043 0.05248
13878.90039 0.052981
13879.62012 0.053482
13880.33008 0.054013
13881.04004 0.054578
13881.75000 0.055144
13882.45996 0.055709
13883.16992 0.056275
13883.87988 0.056841
13884.59961 0.057407
13885.30957 0.057981
13886.01953 0.058565
13886.73047 0.059148
13887.44043 0.059732
13888.16016 0.060316
13888.87012 0.060901
13889.58008 0.061486
13890.29004 0.062065
13891.00000 0.062635
13891.71973 0.063206
13892.42969 0.063777
13893.13965 0.064349
13893.84961 0.06492
13894.55957 0.065491
13895.28027 0.066066
13895.99023 0.066645
13896.70020 0.067225
13897.41016 0.067804
13898.12988 0.068384
13898.83984 0.068963
13899.54980 0.069544
13900.25977 0.070118
13900.98047 0.070686
13901.69043 0.071253
13902.40039 0.071821
13903.11035 0.072387
13903.83008 0.072955
13904.54004 0.073523
13905.25000 0.074129
13905.96973 0.074802
13906.67969 0.075477
13907.38965 0.076151
13908.09961 0.076825
13908.82031 0.077499
13909.53027 0.078174
13910.24023 0.078878
13910.95996 0.079639
13911.66992 0.080399
13912.37988 0.08116
13913.09961 0.081921
13913.80957 0.082683
13914.51953 0.083444
13915.24023 0.084224
13915.95020 0.08504
13916.66016 0.085857
13917.37988 0.086674
13918.08984 0.087491
13918.79980 0.088308
13919.51953 0.089126
13920.23047 0.089922
13920.94043 0.090671
13921.66016 0.091422
13922.37012 0.092172
13923.08008 0.092923
13923.79980 0.093674
13924.50977 0.094424
13925.23047 0.095173
13925.94043 0.095915
13926.65039 0.096657
13927.37012 0.0974
13928.08008 0.098142
13928.79980 0.098885
13929.50977 0.099628
13930.21973 0.100361
13930.94043 0.101074
13931.65039 0.101787
13932.37012 0.102499
13933.08008 0.103213
13933.79004 0.103926
13934.50977 0.10464
13935.21973 0.105358
13935.94043 0.106086
13936.65039 0.106814
13937.37012 0.107542
13938.08008 0.10827
13938.79980 0.108999
13939.50977 0.109728
13940.21973 0.110453
13940.94043 0.111173
13941.65039 0.111893
13942.37012 0.112613
13943.08008 0.113332
13943.79980 0.114052
13944.50977 0.114773
13945.23047 0.115521
13945.94043 0.116328
13946.66016 0.117136
13947.37012 0.117943
13948.08984 0.118751
13948.79980 0.119559
13949.51953 0.120368
13950.23047 0.121157
13950.95020 0.121904
13951.66016 0.122652
13952.37988 0.123399
13953.08984 0.124147
13953.80957 0.124895
13954.51953 0.125643
13955.24023 0.12636
13955.95996 0.127012
13956.66992 0.127665
13957.38965 0.128318
13958.09961 0.12897
13958.82031 0.129624
13959.53027 0.130277
13960.25000 0.130919
13960.95996 0.13154
13961.67969 0.132161
13962.40039 0.132782
13963.11035 0.133404
13963.83008 0.134025
13964.54004 0.134647
13965.25977 0.135235
13965.96973 0.135764
13966.69043 0.136293
13967.41016 0.136823
13968.12012 0.137352
13968.83984 0.137881
13969.54980 0.138411
13970.26953 0.138915
13970.99023 0.139376
13971.70020 0.139838
13972.41992 0.140299
13973.13965 0.140761
13973.84961 0.141223
13974.57031 0.141684
13975.29004 0.142132
13976.00000 0.142557
13976.71973 0.142981
13977.42969 0.143406
13978.15039 0.143831
13978.87012 0.144257
13979.58008 0.144681
13980.29980 0.145068
13981.01953 0.145399
13981.73047 0.145731
13982.45020 0.146063
13983.16992 0.146394
13983.87988 0.146726
13984.59961 0.147058
13985.32031 0.147366
13986.04004 0.147642
13986.75000 0.14792
13987.46973 0.148197
13988.19043 0.148474
13988.90039 0.148751
13989.62012 0.149028
13990.33984 0.149285
13991.04980 0.149519
13991.76953 0.149753
13992.49023 0.149987
13993.20996 0.150222
13993.91992 0.150456
13994.63965 0.150691
13995.36035 0.150898
13996.08008 0.151079
13996.79004 0.15126
13997.50977 0.151442
13998.23047 0.151623
13998.95020 0.151804
13999.66016 0.151985
14000.37988 0.152136
14001.09961 0.15226
14001.82031 0.152384
14002.54004 0.152508
14003.25000 0.152633
14003.96973 0.152757
14004.69043 0.152881
14005.41016 0.152975
14006.12012 0.153043
14006.83984 0.153113
14007.55957 0.153181
14008.28027 0.153251
14009.00000 0.153319
14009.70996 0.153389
14010.42969 0.153431
14011.15039 0.153456
14011.87012 0.153481
14012.58984 0.153506
14013.30957 0.153531
14014.03027 0.153557
14014.74023 0.153582
14015.45996 0.153581
14016.17969 0.153566
14016.90039 0.153551
14017.62012 0.153536
14018.33984 0.153521
14019.04980 0.153506
14019.76953 0.153491
14020.49023 0.15346
14021.20996 0.153422
14021.92969 0.153384
14022.65039 0.153345
14023.37012 0.153307
14024.08984 0.153269
14024.79980 0.15323
14025.51953 0.153173
14026.24023 0.153108
14026.95996 0.153043
14027.67969 0.152979
14028.40039 0.152914
14029.12012 0.152849
14029.83984 0.152785
14030.55957 0.152699
14031.28027 0.152608
14032.00000 0.152516
14032.71973 0.152424
14033.44043 0.152333
14034.15039 0.152241
14034.87012 0.152149
14035.58984 0.152038
14036.30957 0.151923
14037.03027 0.151808
14037.75000 0.151693
14038.46973 0.151578
14039.19043 0.151462
14039.91016 0.151347
14040.62988 0.151224
14041.34961 0.151101
14042.07031 0.150977
14042.79004 0.150854
14043.50977 0.15073
14044.23047 0.150606
14044.95020 0.150482
14045.66992 0.150362
14046.38965 0.150242
14047.11035 0.150122
14047.83008 0.150001
14048.54980 0.149881
14049.26953 0.149761
14049.99023 0.14964
14050.70996 0.149525
14051.42969 0.149409
14052.15039 0.149294
14052.87012 0.149178
14053.58984 0.149062
14054.30957 0.148946
14055.03027 0.148831
14055.75000 0.148713
14056.46973 0.148595
14057.20020 0.148477
14057.91992 0.148359
14058.63965 0.148241
14059.36035 0.148123
14060.08008 0.148006
14060.79980 0.147896
14061.51953 0.147786
14062.24023 0.147677
14062.95996 0.147567
14063.67969 0.147457
14064.40039 0.147347
14065.12012 0.147238
14065.83984 0.147131
14066.57031 0.147025
14067.29004 0.146918
14068.00977 0.146812
14068.73047 0.146705
14069.45020 0.146599
14070.16992 0.146494
14070.88965 0.146398
14071.62012 0.1463
14072.33984 0.146203
14073.05957 0.146107
14073.78027 0.146009
14074.50000 0.145912
14075.21973 0.14582
14075.94043 0.145739
14076.66992 0.145657
14077.38965 0.145576
14078.11035 0.145494
14078.83008 0.145413
14079.54980 0.145331
14080.26953 0.145251
14081.00000 0.145173
14081.71973 0.145095
14082.44043 0.145017
14083.16016 0.14494
14083.87988 0.144862
14084.61035 0.144784
14085.33008 0.144712
14086.04980 0.144646
14086.76953 0.144581
14087.49023 0.144516
14088.21973 0.144451
14088.94043 0.144385
14089.66016 0.14432
14090.37988 0.144265
14091.09961 0.144221
14091.83008 0.144176
14092.54980 0.144131
14093.26953 0.144087
14093.99023 0.144042
14094.71973 0.143997
14095.44043 0.143959
14096.16016 0.143925
14096.87988 0.14389
14097.61035 0.143856
14098.33008 0.143821
14099.04980 0.143787
14099.78027 0.143753
14100.50000 0.143718
14101.21973 0.143684
14101.94043 0.14365
14102.66992 0.143616
14103.38965 0.143581
14104.11035 0.143547
14104.83984 0.143513
14105.55957 0.143502
14106.28027 0.143497
14107.00977 0.143493
14107.73047 0.143488
14108.45020 0.143484
14109.16992 0.14348
14109.90039 0.143475
14110.62012 0.143484
14111.33984 0.143494
14112.07031 0.143505
14112.79004 0.143515
14113.51953 0.143526
14114.24023 0.143536
14114.95996 0.143546
14115.69043 0.143561
14116.41016 0.143575
14117.12988 0.14359
14117.86035 0.143604
14118.58008 0.143619
14119.29980 0.143634
14120.03027 0.143649
14120.75000 0.143682
14121.48047 0.143714
14122.20020 0.143747
14122.91992 0.14378
14123.65039 0.143812
14124.37012 0.143845
14125.09961 0.143879
14125.82031 0.14392
14126.54004 0.143961
14127.26953 0.144002
14127.99023 0.144043
14128.71973 0.144085
14129.44043 0.144126
14130.16992 0.144172
14130.88965 0.144234
14131.61035 0.144296
14132.33984 0.144359
14133.05957 0.144421
14133.79004 0.144484
14134.50977 0.144546
14135.24023 0.144613
14135.95996 0.144687
14136.69043 0.144762
14137.41016 0.144837
14138.13965 0.144912
14138.86035 0.144987
14139.58008 0.145061
14140.30957 0.145141
14141.04004 0.145228
14141.75977 0.145314
14142.49023 0.1454
14143.20996 0.145487
14143.92969 0.145573
14144.66016 0.14566
