# %ECSV 0.9
# ---
# datatype:
# - {name: wavelength, unit: Angstrom, datatype: float32}
# - {name: response, datatype: float32}
# meta: !!omap
# - {band_name: F145M}
# - {group_name: NICMOS1}
wavelength response
11842.44238 0.0
13158.26953 0.000401
13158.71973 0.000402
13159.17969 0.000404
13159.63965 0.000406
13160.09961 0.000408
13160.55957 0.000411
13161.01953 0.000414
13161.48047 0.000417
13161.94043 0.000421
13162.40039 0.000424
13162.86035 0.000427
13163.30957 0.000431
13163.76953 0.000434
13164.23047 0.000437
13164.69043 0.00044
13165.15039 0.000443
13165.61035 0.000444
13166.07031 0.000445
13166.53027 0.000446
13166.99023 0.000447
13167.45020 0.000448
13167.91016 0.000449
13168.37012 0.00045
13168.82031 0.000451
13169.28027 0.000452
13169.74023 0.000453
13170.20020 0.000456
13170.66016 0.000459
13171.12012 0.000462
13171.58008 0.000465
13172.04004 0.000469
13172.50000 0.000472
13172.95996 0.000475
13173.41992 0.000479
13173.87988 0.000482
13174.33984 0.000485
13174.79980 0.000489
13175.25977 0.000491
13175.70996 0.000493
13176.16992 0.000494
13176.62988 0.000496
13177.08984 0.000497
13177.54980 0.000499
13178.00977 0.0005
13178.46973 0.000502
13178.92969 0.000503
13179.38965 0.000505
13179.84961 0.000506
13180.30957 0.000509
13180.76953 0.000512
13181.23047 0.000515
13181.69043 0.000518
13182.15039 0.000521
13182.61035 0.000525
13183.07031 0.000528
13183.53027 0.000531
13183.99023 0.000534
13184.45020 0.000537
13184.91016 0.00054
13185.37012 0.000541
13185.83008 0.00054
13186.29004 0.00054
13186.75000 0.00054
13187.20996 0.000539
13187.66992 0.000539
13188.12988 0.000539
13188.58984 0.000538
13189.04980 0.000538
13189.50977 0.000538
13189.96973 0.000537
13190.42969 0.000543
13190.88965 0.000548
13191.34961 0.000554
13191.80957 0.00056
13192.26953 0.000565
13192.73047 0.000571
13193.19043 0.000577
13193.65039 0.000582
13194.11035 0.000588
13194.57031 0.000594
13195.03027 0.000599
13195.49023 0.000604
13195.95020 0.00061
13196.41016 0.000615
13196.87012 0.00062
13197.33008 0.000625
13197.79004 0.000631
13198.25000 0.000636
13198.70996 0.000641
13199.16992 0.000647
13199.62988 0.000652
13200.08984 0.000656
13200.54980 0.000657
13201.00977 0.000657
13201.46973 0.000658
13201.92969 0.000658
13202.38965 0.000658
13202.84961 0.000659
13203.32031 0.000659
13203.78027 0.00066
13204.24023 0.00066
13204.70020 0.000661
13205.16016 0.000663
13205.62012 0.000667
13206.08008 0.000672
13206.54004 0.000677
13207.00000 0.000681
13207.45996 0.000686
13207.91992 0.00069
13208.37988 0.000695
13208.83984 0.0007
13209.29980 0.000704
13209.75977 0.000709
13210.21973 0.000714
13210.67969 0.00072
13211.15039 0.000726
13211.61035 0.000731
13212.07031 0.000737
13212.53027 0.000743
13212.99023 0.000749
13213.45020 0.000755
13213.91016 0.00076
13214.37012 0.000766
13214.83008 0.000772
13215.29004 0.000775
13215.75000 0.000778
13216.20996 0.00078
13216.67969 0.000782
13217.13965 0.000784
13217.59961 0.000787
13218.05957 0.000789
13218.51953 0.000791
13218.98047 0.000793
13219.44043 0.000796
13219.90039 0.000798
13220.36035 0.000802
13220.83008 0.000807
13221.29004 0.000812
13221.75000 0.000816
13222.20996 0.000821
13222.66992 0.000826
13223.12988 0.000831
13223.58984 0.000836
13224.04980 0.00084
13224.50977 0.000845
13224.98047 0.00085
13225.44043 0.000854
13225.90039 0.000859
13226.36035 0.000863
13226.82031 0.000867
13227.28027 0.000872
13227.74023 0.000876
13228.20020 0.00088
13228.66992 0.000885
13229.12988 0.000889
13229.58984 0.000893
13230.04980 0.000897
13230.50977 0.000901
13230.96973 0.000905
13231.42969 0.000909
13231.90039 0.000913
13232.36035 0.000917
13232.82031 0.000921
13233.28027 0.000925
13233.74023 0.000929
13234.20020 0.000933
13234.66992 0.000937
13235.12988 0.000942
13235.58984 0.00095
13236.04980 0.000958
13236.50977 0.000965
13236.96973 0.000973
13237.42969 0.000981
13237.90039 0.000989
13238.36035 0.000997
13238.82031 0.001005
13239.28027 0.001013
13239.74023 0.001021
13240.20996 0.001028
13240.66992 0.001033
13241.12988 0.001038
13241.58984 0.001043
13242.04980 0.001048
13242.50977 0.001053
13242.98047 0.001058
13243.44043 0.001063
13243.90039 0.001068
13244.36035 0.001073
13244.82031 0.001078
13245.29004 0.001084
13245.75000 0.001092
13246.20996 0.001099
13246.66992 0.001106
13247.12988 0.001113
13247.58984 0.001121
13248.05957 0.001128
13248.51953 0.001135
13248.98047 0.001142
13249.44043 0.00115
13249.91016 0.001157
13250.37012 0.001162
13250.83008 0.001167
13251.29004 0.001172
13251.75000 0.001177
13252.21973 0.001182
13252.67969 0.001187
13253.13965 0.001192
13253.59961 0.001197
13254.05957 0.001202
13254.53027 0.001207
13254.99023 0.001212
13255.45020 0.001219
13255.91016 0.001226
13256.37988 0.001232
13256.83984 0.001239
13257.29980 0.001246
13257.75977 0.001253
13258.23047 0.00126
13258.69043 0.001267
13259.15039 0.001274
13259.61035 0.001281
13260.08008 0.001288
13260.54004 0.001297
13261.00000 0.001305
13261.45996 0.001314
13261.92969 0.001323
13262.38965 0.001332
13262.84961 0.001341
13263.30957 0.00135
13263.78027 0.001359
13264.24023 0.001368
13264.70020 0.001376
13265.16016 0.001385
13265.62988 0.001393
13266.08984 0.001401
13266.54980 0.001409
13267.00977 0.001417
13267.48047 0.001425
13267.94043 0.001433
13268.40039 0.001441
13268.87012 0.001449
13269.33008 0.001457
13269.79004 0.001465
13270.25000 0.001474
13270.71973 0.001484
13271.17969 0.001493
13271.63965 0.001503
13272.09961 0.001512
13272.57031 0.001522
13273.03027 0.001531
13273.49023 0.001541
13273.95996 0.00155
13274.41992 0.00156
13274.87988 0.00157
13275.34961 0.00158
13275.80957 0.001591
13276.26953 0.001602
13276.73047 0.001613
13277.20020 0.001623
13277.66016 0.001634
13278.12012 0.001645
13278.58984 0.001656
13279.04980 0.001667
13279.50977 0.001678
13279.98047 0.001689
13280.44043 0.001699
13280.90039 0.001709
13281.37012 0.00172
13281.83008 0.00173
13282.29004 0.00174
13282.75000 0.001751
13283.21973 0.001761
13283.67969 0.001772
13284.15039 0.001782
13284.61035 0.001792
13285.07031 0.001803
13285.54004 0.001813
13286.00000 0.001823
13286.45996 0.001834
13286.91992 0.001844
13287.38965 0.001854
13287.84961 0.001864
13288.32031 0.001875
13288.78027 0.001885
13289.24023 0.001895
13289.70996 0.001905
13290.16992 0.001916
13290.62988 0.001928
13291.09961 0.001939
13291.55957 0.001951
13292.01953 0.001962
13292.49023 0.001974
13292.95020 0.001985
13293.41016 0.001997
13293.87988 0.002008
13294.33984 0.00202
13294.80957 0.002031
13295.26953 0.002044
13295.73047 0.002056
13296.20020 0.002069
13296.66016 0.002082
13297.12012 0.002095
13297.58984 0.002108
13298.04980 0.002121
13298.50977 0.002134
13298.98047 0.002147
13299.44043 0.00216
13299.91016 0.002172
13300.37012 0.002186
13300.83008 0.002201
13301.29980 0.002215
13301.75977 0.002229
13302.23047 0.002244
13302.69043 0.002258
13303.15039 0.002272
13303.62012 0.002286
13304.08008 0.002301
13304.54980 0.002315
13305.00977 0.002329
13305.46973 0.002346
13305.94043 0.002363
13306.40039 0.00238
13306.87012 0.002397
13307.33008 0.002413
13307.79004 0.00243
13308.25977 0.002447
13308.71973 0.002464
13309.19043 0.002481
13309.65039 0.002497
13310.12012 0.002514
13310.58008 0.00253
13311.04004 0.002546
13311.50977 0.002563
13311.96973 0.002579
13312.44043 0.002595
13312.90039 0.002611
13313.37012 0.002627
13313.83008 0.002643
13314.29004 0.00266
13314.75977 0.002676
13315.21973 0.002692
13315.69043 0.002709
13316.15039 0.002725
13316.62012 0.002742
13317.08008 0.002759
13317.54004 0.002775
13318.00977 0.002792
13318.46973 0.002809
13318.94043 0.002825
13319.40039 0.002842
13319.87012 0.002858
13320.33008 0.002879
13320.79980 0.002902
13321.25977 0.002924
13321.73047 0.002947
13322.19043 0.002969
13322.65039 0.002991
13323.12012 0.003014
13323.58008 0.003036
13324.04980 0.003059
13324.50977 0.003081
13324.98047 0.003104
13325.44043 0.003124
13325.91016 0.003144
13326.37012 0.003164
13326.83984 0.003185
13327.29980 0.003205
13327.76953 0.003225
13328.23047 0.003245
13328.70020 0.003266
13329.16016 0.003286
13329.62988 0.003306
13330.08984 0.003327
13330.55957 0.003351
13331.01953 0.003376
13331.49023 0.0034
13331.95020 0.003424
13332.41992 0.003449
13332.87988 0.003473
13333.34961 0.003497
13333.80957 0.003522
13334.28027 0.003546
13334.74023 0.00357
13335.20996 0.003595
13335.66992 0.003621
13336.13965 0.003647
13336.59961 0.003672
13337.07031 0.003698
13337.53027 0.003724
13338.00000 0.00375
13338.45996 0.003776
13338.92969 0.003801
13339.38965 0.003827
13339.86035 0.003853
13340.32031 0.003879
13340.79004 0.003905
13341.25000 0.003931
13341.71973 0.003957
13342.17969 0.003983
13342.65039 0.004009
13343.11035 0.004035
13343.58008 0.004062
13344.04004 0.004088
13344.50977 0.004114
13344.98047 0.00414
13345.44043 0.004169
13345.91016 0.004199
13346.37012 0.004229
13346.83984 0.004259
13347.29980 0.004288
13347.76953 0.004318
13348.23047 0.004348
13348.70020 0.004378
13349.16992 0.004407
13349.62988 0.004437
13350.09961 0.004468
13350.55957 0.0045
13351.03027 0.004532
13351.49023 0.004565
13351.95996 0.004597
13352.41992 0.00463
13352.88965 0.004663
13353.36035 0.004695
13353.82031 0.004728
13354.29004 0.00476
13354.75000 0.004793
13355.21973 0.004826
13355.67969 0.004861
13356.15039 0.004896
13356.62012 0.004931
13357.08008 0.004966
13357.54980 0.005001
13358.00977 0.005036
13358.48047 0.005072
13358.95020 0.005107
13359.41016 0.005142
13359.87988 0.005177
13360.33984 0.005215
13360.80957 0.005253
13361.28027 0.005292
13361.74023 0.005331
13362.20996 0.00537
13362.66992 0.005409
13363.13965 0.005448
13363.61035 0.005486
13364.07031 0.005525
13364.54004 0.005564
13365.00000 0.005603
13365.46973 0.005648
13365.94043 0.005692
13366.40039 0.005737
13366.87012 0.005781
13367.33008 0.005826
13367.79980 0.005871
13368.26953 0.005915
13368.73047 0.00596
13369.20020 0.006004
13369.66992 0.006049
13370.12988 0.006094
13370.59961 0.006142
13371.05957 0.00619
13371.53027 0.006238
13372.00000 0.006286
13372.45996 0.006334
13372.92969 0.006382
13373.40039 0.006429
13373.86035 0.006477
13374.33008 0.006525
13374.79980 0.006573
13375.25977 0.006621
13375.73047 0.006669
13376.20020 0.006717
13376.66016 0.006765
13377.12988 0.006812
13377.58984 0.00686
13378.05957 0.006908
13378.53027 0.006956
13379.00000 0.007004
13379.45996 0.007052
13379.92969 0.0071
13380.38965 0.007153
13380.86035 0.007207
13381.33008 0.007261
13381.79004 0.007314
13382.25977 0.007368
13382.73047 0.007422
13383.20020 0.007476
13383.66016 0.00753
13384.12988 0.007584
13384.58984 0.007638
13385.05957 0.007693
13385.53027 0.007751
13386.00000 0.00781
13386.45996 0.007869
13386.92969 0.007928
13387.40039 0.007987
13387.86035 0.008046
13388.33008 0.008105
13388.79980 0.008163
13389.25977 0.008222
13389.73047 0.008281
13390.20020 0.008344
13390.66992 0.008412
13391.12988 0.00848
13391.59961 0.008547
13392.07031 0.008615
13392.53027 0.008683
13393.00000 0.008751
13393.46973 0.008819
13393.92969 0.008887
13394.40039 0.008955
13394.87012 0.009023
13395.33984 0.009095
13395.79980 0.00917
13396.26953 0.009245
13396.74023 0.00932
13397.20996 0.009395
13397.66992 0.00947
13398.13965 0.009545
13398.61035 0.00962
13399.07031 0.009695
13399.54004 0.00977
13400.00977 0.009845
13400.48047 0.009927
13400.94043 0.010009
13401.41016 0.010092
13401.87988 0.010174
13402.34961 0.010256
13402.80957 0.010338
13403.28027 0.010421
13403.75000 0.010503
13404.20996 0.010585
13404.67969 0.010668
13405.15039 0.010751
13405.62012 0.010836
13406.08008 0.01092
13406.54980 0.011004
13407.01953 0.011089
13407.49023 0.011174
13407.95996 0.011258
13408.41992 0.011343
13408.88965 0.011427
13409.36035 0.011512
13409.83008 0.011597
13410.29004 0.011685
13410.75977 0.011777
13411.23047 0.011868
13411.70020 0.01196
13412.16992 0.012051
13412.62988 0.012142
13413.09961 0.012234
13413.57031 0.012325
13414.04004 0.012417
13414.50000 0.012508
13414.96973 0.0126
13415.44043 0.012702
13415.91016 0.012804
13416.37012 0.012907
13416.83984 0.013009
13417.30957 0.013112
13417.78027 0.013215
13418.25000 0.013317
13418.70996 0.01342
13419.17969 0.013522
13419.65039 0.013625
13420.12012 0.01373
13420.58984 0.013843
13421.05957 0.013955
13421.51953 0.014068
13421.99023 0.01418
13422.45996 0.014293
13422.92969 0.014405
13423.40039 0.014518
13423.86035 0.01463
13424.33008 0.014743
13424.79980 0.014856
13425.26953 0.014977
13425.74023 0.015106
13426.20996 0.015235
13426.66992 0.015364
13427.13965 0.015493
13427.61035 0.015621
13428.08008 0.01575
13428.54980 0.015879
13429.00977 0.016008
13429.48047 0.016137
13429.95020 0.016266
13430.41992 0.01641
13430.88965 0.016557
13431.36035 0.016703
13431.83008 0.016849
13432.29004 0.016996
13432.75977 0.017142
13433.23047 0.017288
13433.70020 0.017435
13434.16992 0.017581
13434.63965 0.017727
13435.09961 0.017874
13435.57031 0.018021
13436.04004 0.018169
13436.50977 0.018316
13436.98047 0.018463
13437.45020 0.01861
13437.91992 0.018757
13438.37988 0.018904
13438.84961 0.019052
13439.32031 0.019199
13439.79004 0.019347
13440.25977 0.019502
13440.73047 0.019664
13441.20020 0.019827
13441.66992 0.019989
13442.12988 0.020151
13442.59961 0.020314
13443.07031 0.020476
13443.54004 0.020638
13444.00977 0.020801
13444.48047 0.020964
13444.95020 0.021126
13445.41992 0.0213
13445.88965 0.021475
13446.34961 0.021651
13446.82031 0.021826
13447.29004 0.022002
13447.75977 0.022177
13448.23047 0.022353
13448.70020 0.022529
13449.16992 0.022704
13449.63965 0.02288
13450.11035 0.02306
13450.58008 0.023253
13451.04004 0.023446
13451.50977 0.023639
13451.98047 0.023832
13452.45020 0.024025
13452.91992 0.024218
13453.38965 0.024411
13453.86035 0.024604
13454.33008 0.024797
13454.79980 0.024991
13455.26953 0.025194
13455.74023 0.025406
13456.20996 0.025619
13456.67969 0.02583
13457.15039 0.026043
13457.61035 0.026254
13458.08008 0.026467
13458.54980 0.026679
13459.01953 0.026891
13459.49023 0.027103
13459.95996 0.027316
13460.42969 0.027554
13460.90039 0.027794
13461.37012 0.028035
13461.83984 0.028275
13462.30957 0.028515
13462.78027 0.028756
13463.25000 0.028997
13463.71973 0.029238
13464.19043 0.029478
13464.66016 0.029719
13465.12988 0.029965
13465.59961 0.030225
13466.07031 0.030486
13466.54004 0.030746
13467.00000 0.031006
13467.46973 0.031267
13467.94043 0.031527
13468.41016 0.031788
13468.87988 0.032049
13469.34961 0.032309
13469.82031 0.03257
13470.29004 0.032831
13470.75977 0.033093
13471.23047 0.033355
13471.70020 0.033616
13472.16992 0.033878
13472.63965 0.03414
13473.11035 0.034403
13473.58008 0.034665
13474.04980 0.034927
13474.51953 0.035189
13474.99023 0.035451
13475.45996 0.035738
13475.92969 0.036025
13476.40039 0.036313
13476.87012 0.0366
13477.33984 0.036888
13477.80957 0.037175
13478.28027 0.037463
13478.75000 0.037751
13479.21973 0.038039
13479.69043 0.038327
13480.16016 0.038623
13480.62988 0.038933
13481.09961 0.039245
13481.57031 0.039556
13482.04004 0.039867
13482.50977 0.040178
13482.98047 0.04049
13483.45020 0.040801
13483.91992 0.041113
13484.38965 0.041424
13484.86035 0.041736
13485.33008 0.042066
13485.79980 0.042403
13486.28027 0.042741
13486.75000 0.043078
13487.21973 0.043416
13487.69043 0.043754
13488.16016 0.044091
13488.62988 0.044429
13489.09961 0.044767
13489.57031 0.045105
13490.04004 0.045445
13490.50977 0.045805
13490.98047 0.046165
13491.45020 0.046525
13491.91992 0.046886
13492.38965 0.047245
13492.86035 0.047606
13493.33008 0.047966
13493.79980 0.048327
13494.26953 0.048688
13494.74023 0.049048
13495.20996 0.049424
13495.69043 0.049818
13496.16016 0.050212
13496.62988 0.050605
13497.09961 0.050999
13497.57031 0.051393
13498.04004 0.051788
13498.50977 0.052182
13498.98047 0.052576
13499.45020 0.05297
13499.91992 0.053364
13500.38965 0.05376
13500.86035 0.054157
13501.33008 0.054553
13501.80957 0.05495
13502.28027 0.055346
13502.75000 0.055742
13503.21973 0.056139
13503.69043 0.056536
13504.16016 0.056932
13504.62988 0.057329
13505.09961 0.057725
13505.57031 0.058117
13506.04004 0.05851
13506.51953 0.058903
13506.99023 0.059295
13507.45996 0.059687
13507.92969 0.06008
13508.40039 0.060473
13508.87012 0.060866
13509.33984 0.061259
13509.80957 0.061652
13510.28027 0.062068
13510.75977 0.062501
13511.23047 0.062933
13511.70020 0.063366
13512.16992 0.063798
13512.63965 0.064231
13513.11035 0.064663
13513.58008 0.065096
13514.04980 0.065529
13514.53027 0.065962
13515.00000 0.066395
13515.46973 0.066828
13515.94043 0.067262
13516.41016 0.067695
13516.87988 0.068129
13517.34961 0.068563
13517.83008 0.068997
13518.29980 0.069431
13518.76953 0.069865
13519.24023 0.070298
13519.70996 0.070733
13520.17969 0.071176
13520.65039 0.071633
13521.12988 0.07209
13521.59961 0.072547
13522.07031 0.073005
13522.54004 0.073462
13523.00977 0.073918
13523.48047 0.074376
13523.95996 0.074834
13524.42969 0.075291
13524.90039 0.075749
13525.37012 0.076224
13525.83984 0.076703
13526.30957 0.077184
13526.79004 0.077663
13527.25977 0.078143
13527.73047 0.078623
13528.20020 0.079102
13528.66992 0.079582
13529.13965 0.080062
13529.62012 0.080542
13530.08984 0.081017
13530.55957 0.081465
13531.03027 0.081913
13531.50000 0.082361
13531.98047 0.082811
13532.45020 0.083259
13532.91992 0.083707
13533.38965 0.084156
13533.86035 0.084605
13534.33984 0.085054
13534.80957 0.085502
13535.28027 0.085955
13535.75000 0.086409
13536.21973 0.086864
13536.70020 0.087318
13537.16992 0.087772
13537.63965 0.088227
13538.11035 0.088681
13538.58008 0.089137
13539.05957 0.089591
13539.53027 0.090047
13540.00000 0.090502
13540.46973 0.090945
13540.95020 0.091389
13541.41992 0.091831
13541.88965 0.092275
13542.36035 0.092718
13542.83008 0.093162
13543.30957 0.093607
13543.78027 0.09405
13544.25000 0.094494
13544.71973 0.094938
13545.20020 0.095381
13545.66992 0.09582
13546.13965 0.09626
13546.61035 0.096701
13547.08984 0.097141
13547.55957 0.097581
13548.03027 0.098021
13548.50000 0.098462
13548.98047 0.098902
13549.45020 0.099343
13549.91992 0.099783
13550.38965 0.100217
13550.87012 0.10065
13551.33984 0.101083
13551.80957 0.101515
13552.29004 0.101948
13552.75977 0.102381
13553.23047 0.102814
13553.70020 0.103247
13554.17969 0.103679
13554.65039 0.104112
13555.12012 0.104542
13555.58984 0.10496
13556.07031 0.105378
13556.54004 0.105796
13557.00977 0.106215
13557.49023 0.106634
13557.95996 0.107052
13558.42969 0.107471
13558.90039 0.107889
13559.37988 0.108308
13559.84961 0.108728
13560.32031 0.109125
13560.79004 0.109512
13561.26953 0.1099
13561.74023 0.110287
13562.20996 0.110674
13562.69043 0.111062
13563.16016 0.11145
13563.62988 0.111837
13564.11035 0.112226
13564.58008 0.112613
13565.04980 0.112994
13565.53027 0.113315
13566.00000 0.113635
13566.46973 0.113957
13566.94043 0.114277
13567.41992 0.114599
13567.88965 0.11492
13568.36035 0.115241
13568.83984 0.115562
13569.30957 0.115883
13569.78027 0.116205
13570.25977 0.116516
13570.73047 0.116819
13571.20020 0.117123
13571.67969 0.117426
13572.15039 0.11773
13572.62012 0.118033
13573.09961 0.118337
13573.57031 0.11864
13574.04004 0.118944
13574.51953 0.119248
13574.99023 0.119552
13575.45996 0.119827
13575.94043 0.1201
13576.41016 0.120375
13576.87988 0.120649
13577.36035 0.120924
13577.83008 0.121198
13578.30957 0.121473
13578.78027 0.121747
13579.25000 0.122022
13579.73047 0.122297
13580.20020 0.122567
13580.66992 0.122833
13581.15039 0.123098
13581.62012 0.123364
13582.08984 0.123629
13582.57031 0.123895
13583.04004 0.12416
13583.51953 0.124426
13583.99023 0.124691
13584.45996 0.124957
13584.94043 0.125223
13585.41016 0.12546
13585.87988 0.125693
13586.36035 0.125926
13586.83008 0.126159
13587.30957 0.126391
13587.78027 0.126625
13588.25000 0.126858
13588.73047 0.12709
13589.20020 0.127324
13589.67969 0.127557
13590.15039 0.12778
13590.62012 0.127981
13591.09961 0.128183
13591.57031 0.128384
13592.04980 0.128585
13592.51953 0.128787
13592.99023 0.128988
13593.46973 0.12919
13593.94043 0.129391
13594.41992 0.129593
13594.88965 0.129794
13595.36035 0.129967
13595.83984 0.130131
13596.30957 0.130296
13596.79004 0.13046
13597.25977 0.130624
13597.74023 0.130789
13598.20996 0.130953
13598.67969 0.131118
13599.16016 0.131282
