# %ECSV 0.9
# ---
# datatype:
# - {name: wavelength, unit: Angstrom, datatype: float32}
# - {name: response, datatype: float32}
# meta: !!omap
# - {band_name: F160W}
# - {group_name: NICMOS1}
wavelength response
12169.30469 0.0
13521.45020 0.000405
13522.13965 0.000412
13522.83008 0.000418
13523.53027 0.000425
13524.21973 0.000432
13524.91992 0.000439
13525.61035 0.000446
13526.29980 0.000452
13527.00000 0.000459
13527.69043 0.000466
13528.37988 0.000473
13529.08008 0.000479
13529.76953 0.000486
13530.45996 0.000493
13531.16016 0.000499
13531.84961 0.000505
13532.54004 0.000511
13533.24023 0.000517
13533.92969 0.000523
13534.62988 0.000529
13535.32031 0.000535
13536.00977 0.000541
13536.70996 0.000547
13537.40039 0.000553
13538.08984 0.000559
13538.79004 0.000566
13539.48047 0.000572
13540.17969 0.000577
13540.87012 0.00058
13541.55957 0.000583
13542.25977 0.000586
13542.95020 0.000588
13543.65039 0.000591
13544.33984 0.000594
13545.04004 0.000597
13545.73047 0.000606
13546.41992 0.000615
13547.12012 0.000625
13547.80957 0.000634
13548.50977 0.000643
13549.20020 0.000652
13549.90039 0.000661
13550.58984 0.000667
13551.29004 0.000673
13551.98047 0.000678
13552.67969 0.000683
13553.37012 0.000689
13554.07031 0.000694
13554.75977 0.0007
13555.45996 0.000707
13556.15039 0.000716
13556.84961 0.000725
13557.54004 0.000734
13558.24023 0.000743
13558.92969 0.000752
13559.62988 0.000761
13560.32031 0.000771
13561.01953 0.000782
13561.70996 0.000793
13562.41016 0.000804
13563.09961 0.000814
13563.79980 0.000825
13564.49023 0.000836
13565.19043 0.000846
13565.87988 0.000854
13566.58008 0.000862
13567.26953 0.00087
13567.96973 0.000877
13568.66992 0.000885
13569.36035 0.000893
13570.05957 0.000901
13570.75000 0.00091
13571.45020 0.000918
13572.13965 0.000927
13572.83984 0.000936
13573.54004 0.000944
13574.23047 0.000953
13574.92969 0.000962
13575.62012 0.000972
13576.32031 0.000982
13577.00977 0.000993
13577.70996 0.001003
13578.41016 0.001014
13579.09961 0.001025
13579.79980 0.001035
13580.50000 0.001047
13581.19043 0.00106
13581.88965 0.001072
13582.58008 0.001085
13583.28027 0.001098
13583.98047 0.00111
13584.66992 0.001123
13585.37012 0.001136
13586.07031 0.00115
13586.75977 0.001164
13587.45996 0.001178
13588.15039 0.001192
13588.84961 0.001206
13589.54980 0.00122
13590.24023 0.001232
13590.94043 0.001241
13591.63965 0.00125
13592.33008 0.001259
13593.03027 0.001268
13593.73047 0.001277
13594.41992 0.001286
13595.12012 0.001296
13595.82031 0.001312
13596.51953 0.001329
13597.20996 0.001345
13597.91016 0.001362
13598.61035 0.001378
13599.29980 0.001395
13600.00000 0.001411
13600.70020 0.001427
13601.40039 0.001443
13602.08984 0.001459
13602.79004 0.001476
13603.49023 0.001492
13604.19043 0.001508
13604.87988 0.001524
13605.58008 0.001542
13606.28027 0.001561
13606.96973 0.00158
13607.66992 0.001599
13608.37012 0.001617
13609.07031 0.001636
13609.76953 0.001655
13610.45996 0.001673
13611.16016 0.001691
13611.86035 0.001708
13612.55957 0.001726
13613.25000 0.001744
13613.95020 0.001762
13614.65039 0.001779
13615.34961 0.0018
13616.04980 0.001824
13616.74023 0.001847
13617.44043 0.001871
13618.13965 0.001895
13618.83984 0.001918
13619.54004 0.001942
13620.23047 0.001964
13620.92969 0.001982
13621.62988 0.002001
13622.33008 0.002019
13623.03027 0.002037
13623.73047 0.002056
13624.41992 0.002074
13625.12012 0.002094
13625.82031 0.002117
13626.51953 0.002141
13627.21973 0.002164
13627.91992 0.002188
13628.62012 0.002211
13629.30957 0.002235
13630.00977 0.002258
13630.70996 0.002279
13631.41016 0.002299
13632.11035 0.00232
13632.80957 0.00234
13633.50977 0.00236
13634.20996 0.002381
13634.91016 0.002401
13635.59961 0.002427
13636.29980 0.002453
13637.00000 0.002479
13637.70020 0.002506
13638.40039 0.002532
13639.09961 0.002559
13639.79980 0.002585
13640.50000 0.002613
13641.20020 0.002641
13641.90039 0.002669
13642.59961 0.002698
13643.29004 0.002726
13643.99023 0.002754
13644.69043 0.002783
13645.38965 0.002813
13646.08984 0.002845
13646.79004 0.002878
13647.49023 0.00291
13648.19043 0.002943
13648.88965 0.002975
13649.58984 0.003007
13650.29004 0.003038
13650.99023 0.003066
13651.69043 0.003094
13652.38965 0.003123
13653.08984 0.003151
13653.79004 0.003179
13654.49023 0.003207
13655.19043 0.003236
13655.88965 0.003268
13656.58984 0.0033
13657.29004 0.003331
13657.99023 0.003363
13658.69043 0.003395
13659.38965 0.003426
13660.08984 0.003458
13660.79004 0.003486
13661.49023 0.003514
13662.19043 0.003543
13662.88965 0.003571
13663.58984 0.003599
13664.29004 0.003628
13664.99023 0.003656
13665.69043 0.00369
13666.38965 0.003725
13667.08984 0.003759
13667.79980 0.003794
13668.50000 0.003829
13669.20020 0.003863
13669.90039 0.003898
13670.59961 0.003932
13671.29980 0.003967
13672.00000 0.004002
13672.70020 0.004037
13673.40039 0.004072
13674.09961 0.004106
13674.79980 0.004141
13675.50000 0.004174
13676.20996 0.004206
13676.91016 0.004238
13677.61035 0.00427
13678.30957 0.004302
13679.00977 0.004334
13679.70996 0.004366
13680.41016 0.004405
13681.11035 0.004449
13681.82031 0.004492
13682.51953 0.004535
13683.21973 0.004579
13683.91992 0.004622
13684.62012 0.004666
13685.32031 0.004707
13686.01953 0.004746
13686.73047 0.004785
13687.42969 0.004824
13688.12988 0.004863
13688.83008 0.004902
13689.53027 0.004941
13690.24023 0.00498
13690.94043 0.005018
13691.63965 0.005056
13692.33984 0.005094
13693.04004 0.005132
13693.74023 0.00517
13694.45020 0.005208
13695.15039 0.005246
13695.84961 0.005284
13696.54980 0.005323
13697.25000 0.005361
13697.95996 0.0054
13698.66016 0.005438
13699.36035 0.005477
13700.05957 0.005515
13700.76953 0.005556
13701.46973 0.005597
13702.16992 0.005638
13702.87012 0.005679
13703.58008 0.00572
13704.28027 0.005761
13704.98047 0.005802
13705.67969 0.005843
13706.38965 0.005884
13707.08984 0.005925
13707.79004 0.005966
13708.49023 0.006007
13709.20020 0.006048
13709.90039 0.006089
13710.59961 0.006132
13711.29980 0.006176
13712.00977 0.006219
13712.70996 0.006262
13713.41016 0.006306
13714.12012 0.006349
13714.82031 0.006392
13715.51953 0.006435
13716.23047 0.006477
13716.92969 0.00652
13717.62988 0.006562
13718.33984 0.006604
13719.04004 0.006647
13719.74023 0.006689
13720.45020 0.006734
13721.15039 0.00678
13721.84961 0.006826
13722.55957 0.006872
13723.25977 0.006918
13723.95996 0.006964
13724.66992 0.00701
13725.37012 0.007052
13726.07031 0.00709
13726.78027 0.007129
13727.48047 0.007167
13728.17969 0.007205
13728.88965 0.007243
13729.58984 0.007282
13730.29980 0.007323
13731.00000 0.00737
13731.70020 0.007416
13732.41016 0.007463
13733.11035 0.007509
13733.82031 0.007556
13734.51953 0.007603
13735.21973 0.007648
13735.92969 0.007691
13736.62988 0.007733
13737.33984 0.007776
13738.04004 0.007819
13738.75000 0.007862
13739.45020 0.007904
13740.15039 0.007948
13740.86035 0.007994
13741.55957 0.008041
13742.26953 0.008087
13742.96973 0.008133
13743.67969 0.00818
13744.37988 0.008226
13745.08008 0.008274
13745.79004 0.00833
13746.49023 0.008387
13747.20020 0.008444
13747.90039 0.008501
13748.61035 0.008558
13749.30957 0.008614
13750.01953 0.008671
13750.71973 0.008719
13751.42969 0.008767
13752.12988 0.008815
13752.83984 0.008863
13753.54004 0.008911
13754.25000 0.008959
13754.95020 0.009007
13755.66016 0.009056
13756.36035 0.009104
13757.07031 0.009152
13757.76953 0.0092
13758.48047 0.009248
13759.17969 0.009296
13759.88965 0.009344
13760.58984 0.0094
13761.29980 0.009457
13762.00977 0.009514
13762.70996 0.009571
13763.41992 0.009628
13764.12012 0.009685
13764.83008 0.009742
13765.53027 0.009796
13766.24023 0.009849
13766.95020 0.009903
13767.65039 0.009956
13768.36035 0.010009
13769.05957 0.010062
13769.76953 0.010115
13770.46973 0.010174
13771.17969 0.010237
13771.88965 0.010299
13772.58984 0.010362
13773.29980 0.010424
13774.00000 0.010487
13774.70996 0.01055
13775.41992 0.010612
13776.12012 0.010673
13776.83008 0.010734
13777.54004 0.010795
13778.24023 0.010857
13778.95020 0.010918
13779.65039 0.010979
13780.36035 0.011044
13781.07031 0.011111
13781.76953 0.011178
13782.48047 0.011245
13783.19043 0.011312
13783.88965 0.011379
13784.59961 0.011446
13785.30957 0.011514
13786.00977 0.011584
13786.71973 0.011654
13787.42969 0.011724
13788.12988 0.011795
13788.83984 0.011865
13789.54980 0.011935
13790.25000 0.012005
13790.95996 0.012076
13791.66992 0.012147
13792.37012 0.012218
13793.08008 0.012289
13793.79004 0.012361
13794.50000 0.012432
13795.20020 0.012505
13795.91016 0.012586
13796.62012 0.012666
13797.33008 0.012747
13798.03027 0.012827
13798.74023 0.012908
13799.45020 0.012988
13800.15039 0.013069
13800.86035 0.013153
13801.57031 0.013237
13802.28027 0.01332
13802.98047 0.013404
13803.69043 0.013488
13804.40039 0.013571
13805.11035 0.013657
13805.82031 0.01375
13806.51953 0.013843
13807.23047 0.013936
13807.94043 0.014029
13808.65039 0.014122
13809.34961 0.014215
13810.05957 0.01431
13810.76953 0.014417
13811.48047 0.014524
13812.19043 0.014632
13812.88965 0.014739
13813.59961 0.014846
13814.30957 0.014954
13815.01953 0.015062
13815.73047 0.015177
13816.44043 0.015293
13817.13965 0.015408
13817.84961 0.015524
13818.55957 0.015639
13819.26953 0.015755
13819.98047 0.01587
13820.69043 0.015984
13821.38965 0.016098
13822.09961 0.016212
13822.80957 0.016326
13823.51953 0.016439
13824.23047 0.016553
13824.94043 0.016667
13825.65039 0.016785
13826.34961 0.016903
13827.05957 0.017021
13827.76953 0.017139
13828.48047 0.017257
13829.19043 0.017375
13829.90039 0.017494
13830.61035 0.017625
13831.32031 0.017759
13832.03027 0.017892
13832.74023 0.018026
13833.44043 0.01816
13834.15039 0.018293
13834.86035 0.018427
13835.57031 0.018574
13836.28027 0.018724
13836.99023 0.018874
13837.70020 0.019023
13838.41016 0.019174
13839.12012 0.019323
13839.83008 0.019474
13840.54004 0.019626
13841.25000 0.01978
13841.95996 0.019933
13842.66992 0.020087
13843.37988 0.020241
13844.08008 0.020394
13844.79004 0.020548
13845.50000 0.020715
13846.20996 0.020886
13846.91992 0.021057
13847.62988 0.021228
13848.33984 0.0214
13849.04980 0.021571
13849.75977 0.021742
13850.46973 0.021916
13851.17969 0.02209
13851.88965 0.022264
13852.59961 0.022439
13853.30957 0.022613
13854.01953 0.022787
13854.73047 0.022962
13855.45020 0.023141
13856.16016 0.023323
13856.87012 0.023505
13857.58008 0.023687
13858.29004 0.023869
13859.00000 0.024052
13859.70996 0.024234
13860.41992 0.024427
13861.12988 0.024629
13861.83984 0.024831
13862.54980 0.025033
13863.25977 0.025234
13863.96973 0.025436
13864.67969 0.025638
13865.38965 0.025857
13866.09961 0.026089
13866.80957 0.026321
13867.51953 0.026554
13868.24023 0.026786
13868.95020 0.027019
13869.66016 0.027251
13870.37012 0.027501
13871.08008 0.027767
13871.79004 0.028033
13872.50000 0.028299
13873.20996 0.028566
13873.91992 0.028832
13874.63965 0.029098
13875.34961 0.029377
13876.05957 0.02967
13876.76953 0.029963
13877.48047 0.030255
13878.19043 0.030548
13878.90039 0.030841
13879.62012 0.031134
13880.33008 0.031429
13881.04004 0.031727
13881.75000 0.032026
13882.45996 0.032324
13883.16992 0.032623
13883.87988 0.032921
13884.59961 0.03322
13885.30957 0.033528
13886.01953 0.033847
13886.73047 0.034166
13887.44043 0.034486
13888.16016 0.034805
13888.87012 0.035125
13889.58008 0.035445
13890.29004 0.035766
13891.00000 0.03609
13891.71973 0.036413
13892.42969 0.036737
13893.13965 0.037061
13893.84961 0.037385
13894.55957 0.037708
13895.28027 0.038037
13895.99023 0.038371
13896.70020 0.038705
13897.41016 0.039039
13898.12988 0.039374
13898.83984 0.039708
13899.54980 0.040043
13900.25977 0.040397
13900.98047 0.040784
13901.69043 0.041171
13902.40039 0.041559
13903.11035 0.041946
13903.83008 0.042333
13904.54004 0.042721
13905.25000 0.043138
13905.96973 0.043607
13906.67969 0.044076
13907.38965 0.044545
13908.09961 0.045014
13908.82031 0.045483
13909.53027 0.045953
13910.24023 0.046423
13910.95996 0.046895
13911.66992 0.047366
13912.37988 0.047837
13913.09961 0.048308
13913.80957 0.048781
13914.51953 0.049252
13915.24023 0.049736
13915.95020 0.050243
13916.66016 0.050751
13917.37988 0.051258
13918.08984 0.051766
13918.79980 0.052273
13919.51953 0.052782
13920.23047 0.053294
13920.94043 0.053814
13921.66016 0.054335
13922.37012 0.054855
13923.08008 0.055376
13923.79980 0.055898
13924.50977 0.056419
13925.23047 0.056949
13925.94043 0.057499
13926.65039 0.058049
13927.37012 0.0586
13928.08008 0.05915
13928.79980 0.059701
13929.50977 0.060251
13930.21973 0.060811
13930.94043 0.061389
13931.65039 0.061967
13932.37012 0.062545
13933.08008 0.063124
13933.79004 0.063702
13934.50977 0.064281
13935.21973 0.064873
13935.94043 0.065496
13936.65039 0.066118
13937.37012 0.066741
13938.08008 0.067363
13938.79980 0.067986
13939.50977 0.06861
13940.21973 0.069246
13940.94043 0.069915
13941.65039 0.070583
13942.37012 0.071251
13943.08008 0.07192
13943.79980 0.072589
13944.50977 0.073258
13945.23047 0.073933
13945.94043 0.074623
13946.66016 0.075313
13947.37012 0.076003
13948.08984 0.076694
13948.79980 0.077384
13949.51953 0.078075
13950.23047 0.078782
13950.95020 0.079519
13951.66016 0.080258
13952.37988 0.080996
13953.08984 0.081735
13953.80957 0.082474
13954.51953 0.083213
13955.24023 0.083951
13955.95996 0.084684
13956.66992 0.085419
13957.38965 0.086154
13958.09961 0.086888
13958.82031 0.087623
13959.53027 0.088358
13960.25000 0.089103
13960.95996 0.089867
13961.67969 0.090631
13962.40039 0.091396
13963.11035 0.09216
13963.83008 0.092925
13964.54004 0.09369
13965.25977 0.094433
13965.96973 0.095135
13966.69043 0.095837
13967.41016 0.09654
13968.12012 0.097242
13968.83984 0.097945
13969.54980 0.098648
13970.26953 0.099353
13970.99023 0.100059
13971.70020 0.100766
13972.41992 0.101474
13973.13965 0.102181
13973.84961 0.102889
13974.57031 0.103597
13975.29004 0.104275
13976.00000 0.104907
13976.71973 0.105538
13977.42969 0.106171
13978.15039 0.106803
13978.87012 0.107436
13979.58008 0.108068
13980.29980 0.108684
13981.01953 0.109276
13981.73047 0.109868
13982.45020 0.11046
13983.16992 0.111052
13983.87988 0.111645
13984.59961 0.112238
13985.32031 0.112836
13986.04004 0.113443
13986.75000 0.11405
13987.46973 0.114656
13988.19043 0.115263
13988.90039 0.11587
13989.62012 0.116477
13990.33984 0.11709
13991.04980 0.117711
13991.76953 0.118332
13992.49023 0.118952
13993.20996 0.119574
13993.91992 0.120195
13994.63965 0.120816
13995.36035 0.121424
13996.08008 0.122017
13996.79004 0.122611
13997.50977 0.123205
13998.23047 0.123799
13998.95020 0.124394
13999.66016 0.124987
14000.37988 0.125551
14001.09961 0.126089
14001.82031 0.126626
14002.54004 0.127164
14003.25000 0.127701
14003.96973 0.128239
14004.69043 0.128777
14005.41016 0.129253
14006.12012 0.12968
14006.83984 0.130107
14007.55957 0.130534
14008.28027 0.130962
14009.00000 0.131389
14009.70996 0.131817
14010.42969 0.132196
14011.15039 0.132542
14011.87012 0.132889
14012.58984 0.133235
14013.30957 0.133582
14014.03027 0.133929
14014.74023 0.134275
14015.45996 0.134576
14016.17969 0.134853
14016.90039 0.135129
14017.62012 0.135405
14018.33984 0.135681
14019.04980 0.135958
14019.76953 0.136234
14020.49023 0.136479
14021.20996 0.136708
14021.92969 0.136938
14022.65039 0.137168
14023.37012 0.137398
14024.08984 0.137627
14024.79980 0.137857
14025.51953 0.13804
14026.24023 0.138205
14026.95996 0.13837
14027.67969 0.138535
14028.40039 0.1387
14029.12012 0.138865
14029.83984 0.13903
14030.55957 0.139166
14031.28027 0.139294
14032.00000 0.139422
14032.71973 0.139551
14033.44043 0.139679
14034.15039 0.139807
14034.87012 0.139935
14035.58984 0.140023
14036.30957 0.140103
14037.03027 0.140183
14037.75000 0.140263
14038.46973 0.140342
14039.19043 0.140422
14039.91016 0.140502
14040.62988 0.140543
14041.34961 0.140578
14042.07031 0.140614
14042.79004 0.140649
14043.50977 0.140684
14044.23047 0.140719
14044.95020 0.140755
14045.66992 0.140755
14046.38965 0.140752
14047.11035 0.140749
14047.83008 0.140746
14048.54980 0.140743
14049.26953 0.14074
14049.99023 0.140737
14050.70996 0.140708
14051.42969 0.140679
14052.15039 0.140651
14052.87012 0.140622
14053.58984 0.140593
14054.30957 0.140564
14055.03027 0.140533
14055.75000 0.140469
14056.46973 0.140406
14057.20020 0.140342
14057.91992 0.140279
14058.63965 0.140215
14059.36035 0.140152
14060.08008 0.140086
14060.79980 0.140005
14061.51953 0.139924
14062.24023 0.139844
14062.95996 0.139763
14063.67969 0.139682
14064.40039 0.139601
14065.12012 0.139517
14065.83984 0.139423
14066.57031 0.139329
14067.29004 0.139234
14068.00977 0.13914
14068.73047 0.139045
14069.45020 0.138951
14070.16992 0.138854
14070.88965 0.13875
14071.62012 0.138646
14072.33984 0.138542
14073.05957 0.138438
14073.78027 0.138334
14074.50000 0.13823
14075.21973 0.138127
14075.94043 0.138025
14076.66992 0.137924
14077.38965 0.137822
14078.11035 0.137721
14078.83008 0.13762
14079.54980 0.137518
14080.26953 0.137411
14081.00000 0.137297
14081.71973 0.137182
14082.44043 0.137067
14083.16016 0.136952
14083.87988 0.136837
14084.61035 0.136722
14085.33008 0.13661
14086.04980 0.136501
14086.76953 0.136392
14087.49023 0.136284
14088.21973 0.136175
14088.94043 0.136066
14089.66016 0.135957
14090.37988 0.135851
14091.09961 0.135748
14091.83008 0.135645
14092.54980 0.135541
14093.26953 0.135438
14093.99023 0.135335
14094.71973 0.135232
14095.44043 0.135125
14096.16016 0.135017
14096.87988 0.134909
14097.61035 0.1348
14098.33008 0.134692
14099.04980 0.134584
14099.78027 0.134476
14100.50000 0.134381
14101.21973 0.134292
14101.94043 0.134203
14102.66992 0.134115
14103.38965 0.134026
14104.11035 0.133937
14104.83984 0.133848
14105.55957 0.133768
14106.28027 0.133691
14107.00977 0.133613
14107.73047 0.133535
14108.45020 0.133458
14109.16992 0.13338
14109.90039 0.133302
14110.62012 0.13324
14111.33984 0.13318
14112.07031 0.133121
14112.79004 0.133061
14113.51953 0.133001
14114.24023 0.132941
14114.95996 0.132881
14115.69043 0.132823
14116.41016 0.132766
14117.12988 0.132708
14117.86035 0.13265
14118.58008 0.132592
14119.29980 0.132534
14120.03027 0.132476
14120.75000 0.132427
14121.48047 0.132377
14122.20020 0.132327
14122.91992 0.132277
14123.65039 0.132227
14124.37012 0.132178
14125.09961 0.13213
14125.82031 0.132092
14126.54004 0.132054
14127.26953 0.132017
14127.99023 0.131979
14128.71973 0.131942
14129.44043 0.131904
14130.16992 0.131872
14130.88965 0.131858
14131.61035 0.131845
14132.33984 0.131831
14133.05957 0.131818
14133.79004 0.131804
14134.50977 0.131791
14135.24023 0.131779
14135.95996 0.131771
14136.69043 0.131762
14137.41016 0.131754
14138.13965 0.131745
14138.86035 0.131737
14139.58008 0.131728
14140.30957 0.131726
14141.04004 0.131731
14141.75977 0.131737
14142.49023 0.131742
14143.20996 0.131747
14143.92969 0.131752
14144.66016 0.131757
14145.37988 0.131769
14146.11035 0.131786
14146.83984 0.131803
14147.55957 0.13182
14148.29004 0.131837
14149.00977 0.131854
14149.74023 0.131872
14150.45996 0.131899
14151.19043 0.131932
14151.91016 0.131964
14152.63965 0.131997
14153.36035 0.13203
14154.08984 0.132063
14154.82031 0.132096
14155.54004 0.132142
14156.26953 0.132193
14156.99023 0.132244
14157.71973 0.132294
14158.44043 0.132345
14159.16992 0.132396
14159.90039 0.132447
14160.62012 0.132499
14161.34961 0.132551
14162.07031 0.132603
14162.79980 0.132656
14163.53027 0.132708
14164.25000 0.13276
14164.98047 0.132812
14165.70020 0.132881
14166.42969 0.132951
14167.16016 0.13302
14167.87988 0.133089
14168.61035 0.133159
14169.33008 0.133229
14170.05957 0.133299
14170.79004 0.133376
14171.50977 0.133452
14172.24023 0.133529
14172.96973 0.133606
14173.69043 0.133683
14174.41992 0.13376
14175.15039 0.13384
14175.87012 0.133933
14176.59961 0.134025
14177.33008 0.134118
14178.04980 0.13421
14178.78027 0.134302
14179.50977 0.134395
14180.23047 0.134489
14180.95996 0.134585
14181.69043 0.134682
14182.41992 0.134778
14183.13965 0.134875
14183.87012 0.134971
14184.59961 0.135068
14185.32031 0.135173
14186.04980 0.135288
14186.78027 0.135403
14187.50977 0.135517
14188.23047 0.135632
14188.95996 0.135747
14189.69043 0.135862
14190.41992 0.135984
14191.13965 0.136112
14191.87012 0.136239
