# %ECSV 0.9
# ---
# datatype:
# - {name: wavelength, unit: Angstrom, datatype: float32}
# - {name: response, datatype: float32}
# meta: !!omap
# - {band_name: F140W}
# - {group_name: WFC3_IR}
wavelength response
10587.53711 0.0
11763.92969 0.00041
11764.88965 0.000425
11765.83984 0.000441
11766.79980 0.000457
11767.75000 0.000472
11768.70996 0.000488
11769.66016 0.000503
11770.61035 0.000519
11771.57031 0.000534
11772.51953 0.00055
11773.48047 0.000565
11774.42969 0.000581
11775.38965 0.000597
11776.33984 0.000612
11777.29980 0.000628
11778.25977 0.000643
11779.20996 0.000659
11780.16992 0.000675
11781.12012 0.00069
11782.08008 0.000706
11783.03027 0.000721
11783.99023 0.000753
11784.95020 0.000789
11785.90039 0.000824
11786.86035 0.00086
11787.80957 0.000896
11788.76953 0.000931
11789.73047 0.000967
11790.67969 0.001003
11791.63965 0.001038
11792.59961 0.001074
11793.54980 0.00111
11794.50977 0.001145
11795.46973 0.001181
11796.41992 0.001217
11797.37988 0.001252
11798.33984 0.001288
11799.29004 0.001324
11800.25000 0.00136
11801.20996 0.001395
11802.16992 0.001431
11803.12012 0.001467
11804.08008 0.001516
11805.04004 0.001567
11806.00000 0.001618
11806.95020 0.001669
11807.91016 0.001719
11808.87012 0.00177
11809.83008 0.001821
11810.79004 0.001872
11811.74023 0.001923
11812.70020 0.001974
11813.66016 0.002025
11814.62012 0.002076
11815.58008 0.002128
11816.54004 0.002179
11817.49023 0.00223
11818.45020 0.002281
11819.41016 0.002332
11820.37012 0.002383
11821.33008 0.002434
11822.29004 0.002485
11823.25000 0.002537
11824.20996 0.002621
11825.16992 0.002705
11826.12012 0.002788
11827.08008 0.002872
11828.04004 0.002956
11829.00000 0.00304
11829.95996 0.003124
11830.91992 0.003208
11831.87988 0.003292
11832.83984 0.003376
11833.79980 0.00346
11834.75977 0.003544
11835.71973 0.003627
11836.67969 0.003711
11837.63965 0.003795
11838.59961 0.003879
11839.55957 0.003963
11840.51953 0.004047
11841.48047 0.004132
11842.44043 0.004215
11843.41016 0.004305
11844.37012 0.00442
11845.33008 0.004536
11846.29004 0.004651
11847.25000 0.004767
11848.20996 0.004882
11849.16992 0.004997
11850.12988 0.005113
11851.08984 0.005229
11852.04980 0.005345
11853.01953 0.005461
11853.98047 0.005577
11854.94043 0.005693
11855.90039 0.005809
11856.86035 0.005925
11857.83008 0.006041
11858.79004 0.006158
11859.75000 0.006274
11860.70996 0.00639
11861.66992 0.006505
11862.63965 0.006621
11863.59961 0.006765
11864.55957 0.006958
11865.51953 0.007151
11866.49023 0.007344
11867.45020 0.007538
11868.41016 0.007731
11869.37012 0.007924
11870.33984 0.008117
11871.29980 0.00831
11872.25977 0.008504
11873.23047 0.008697
11874.19043 0.00889
11875.15039 0.009084
11876.12012 0.009277
11877.08008 0.00947
11878.04004 0.009664
11879.00977 0.009857
11879.96973 0.010051
11880.92969 0.010244
11881.90039 0.010438
11882.86035 0.010631
11883.82031 0.010902
11884.79004 0.011226
11885.75000 0.011549
11886.71973 0.011872
11887.67969 0.012196
11888.65039 0.012519
11889.61035 0.012843
11890.57031 0.013167
11891.54004 0.013492
11892.50000 0.013816
11893.46973 0.014141
11894.42969 0.014466
11895.40039 0.014792
11896.36035 0.015117
11897.33008 0.015442
11898.29004 0.015768
11899.25977 0.016093
11900.21973 0.016418
11901.19043 0.016743
11902.16016 0.017067
11903.12012 0.017391
11904.08984 0.017886
11905.04980 0.018409
11906.01953 0.018932
11906.98047 0.019455
11907.95020 0.019977
11908.91992 0.0205
11909.87988 0.021023
11910.84961 0.021547
11911.80957 0.02207
11912.78027 0.022594
11913.75000 0.023117
11914.70996 0.02364
11915.67969 0.024164
11916.65039 0.024688
11917.61035 0.025211
11918.58008 0.025735
11919.54980 0.026259
11920.50977 0.026783
11921.48047 0.027306
11922.45020 0.02783
11923.41992 0.028426
11924.37988 0.029402
11925.34961 0.030379
11926.32031 0.031355
11927.28027 0.032332
11928.25000 0.033308
11929.21973 0.034285
11930.19043 0.035262
11931.16016 0.03624
11932.12012 0.037217
11933.08984 0.038194
11934.05957 0.039171
11935.03027 0.040149
11936.00000 0.041127
11936.95996 0.042105
11937.92969 0.043082
11938.90039 0.044061
11939.87012 0.045039
11940.83984 0.04602
11941.80957 0.047003
11942.76953 0.047985
11943.74023 0.049335
11944.70996 0.051067
11945.67969 0.052797
11946.65039 0.054528
11947.62012 0.056261
11948.58984 0.057993
11949.55957 0.059727
11950.53027 0.061456
11951.50000 0.063185
11952.46973 0.064915
11953.44043 0.066644
11954.41016 0.068374
11955.37988 0.070103
11956.34961 0.071833
11957.32031 0.073563
11958.29004 0.075292
11959.25977 0.077024
11960.23047 0.078754
11961.20020 0.080486
11962.16992 0.082216
11963.13965 0.083948
11964.11035 0.086873
11965.08008 0.089994
11966.04980 0.093112
11967.01953 0.096233
11967.99023 0.099357
11968.95996 0.102479
11969.92969 0.105601
11970.90039 0.108722
11971.87012 0.111847
11972.83984 0.11497
11973.82031 0.118095
11974.79004 0.121217
11975.75977 0.124343
11976.73047 0.127469
11977.70020 0.130595
11978.66992 0.133721
11979.65039 0.136848
11980.62012 0.139981
11981.58984 0.14312
11982.55957 0.146262
11983.53027 0.150028
11984.50977 0.15557
11985.48047 0.161108
11986.45020 0.166652
11987.41992 0.172192
11988.38965 0.177739
11989.37012 0.183287
11990.33984 0.188831
11991.30957 0.194365
11992.29004 0.1999
11993.25977 0.205435
11994.23047 0.210976
11995.20020 0.216511
11996.17969 0.222047
11997.15039 0.227588
11998.12012 0.23313
11999.09961 0.238667
12000.07031 0.244209
12001.04004 0.249755
12002.01953 0.255301
12002.99023 0.260848
12003.95996 0.266814
12004.94043 0.27296
12005.91016 0.279108
12006.88965 0.285262
12007.86035 0.29141
12008.83008 0.297559
12009.80957 0.303714
12010.78027 0.30987
12011.75977 0.31602
12012.73047 0.322176
12013.70996 0.328333
12014.67969 0.334491
12015.66016 0.340649
12016.62988 0.346808
12017.59961 0.352967
12018.58008 0.359132
12019.54980 0.365292
12020.53027 0.371476
12021.50000 0.377668
12022.48047 0.383868
12023.45996 0.389805
12024.42969 0.394494
12025.41016 0.399184
12026.37988 0.403875
12027.36035 0.408567
12028.33008 0.413261
12029.30957 0.417955
12030.29004 0.422645
12031.25977 0.427307
12032.24023 0.431968
12033.20996 0.436635
12034.19043 0.441298
12035.16992 0.445965
12036.13965 0.450633
12037.12012 0.455301
12038.08984 0.45997
12039.07031 0.464638
12040.04980 0.469308
12041.01953 0.473977
12042.00000 0.478647
12042.98047 0.483317
12043.95996 0.486038
12044.92969 0.487818
12045.91016 0.4896
12046.88965 0.491381
12047.86035 0.493161
12048.83984 0.494944
12049.82031 0.496726
12050.79980 0.498508
12051.76953 0.50029
12052.75000 0.502073
12053.73047 0.503856
12054.70996 0.50564
12055.67969 0.507423
12056.66016 0.509206
12057.63965 0.510991
12058.62012 0.512776
12059.59961 0.51456
12060.58008 0.51637
12061.54980 0.518199
12062.53027 0.520027
12063.50977 0.521529
12064.49023 0.521837
12065.46973 0.522144
12066.45020 0.522452
12067.42969 0.52276
12068.40039 0.523068
12069.37988 0.523377
12070.36035 0.523669
12071.33984 0.523934
12072.32031 0.524199
12073.29980 0.524464
12074.28027 0.524729
12075.25977 0.524995
12076.24023 0.52526
12077.21973 0.525525
12078.20020 0.525791
12079.17969 0.526056
12080.16016 0.526321
12081.13965 0.526587
12082.12012 0.526853
12083.09961 0.527118
12084.08008 0.527093
12085.05957 0.52699
12086.04004 0.526887
12087.01953 0.526784
12088.00000 0.526681
12088.98047 0.526578
12089.95996 0.526475
12090.94043 0.526373
12091.91992 0.526269
12092.90039 0.526166
12093.87988 0.526063
12094.87012 0.52596
12095.84961 0.525857
12096.83008 0.525754
12097.80957 0.525651
12098.79004 0.525548
12099.76953 0.525444
12100.75000 0.525375
12101.74023 0.525315
12102.71973 0.525255
12103.70020 0.525208
12104.67969 0.525179
12105.66016 0.525151
12106.65039 0.525123
12107.62988 0.525094
12108.61035 0.525066
12109.58984 0.525037
12110.57031 0.524984
12111.55957 0.524911
12112.54004 0.52484
12113.51953 0.524768
12114.50000 0.524695
12115.49023 0.524624
12116.46973 0.524552
12117.45020 0.524479
12118.44043 0.524408
12119.41992 0.524335
12120.40039 0.524263
12121.38965 0.524191
12122.37012 0.524119
12123.34961 0.524051
12124.33984 0.524078
12125.32031 0.524106
12126.29980 0.524134
12127.29004 0.524162
12128.26953 0.524189
12129.25000 0.524217
12130.24023 0.524245
12131.21973 0.524273
12132.20996 0.524301
12133.19043 0.524328
12134.16992 0.524356
12135.16016 0.524384
12136.13965 0.524412
12137.12988 0.52444
12138.11035 0.524467
12139.09961 0.524495
12140.08008 0.524527
12141.07031 0.524598
12142.04980 0.52467
12143.04004 0.524741
12144.01953 0.524848
12145.00977 0.524969
12145.99023 0.525091
12146.98047 0.525212
12147.95996 0.525334
12148.95020 0.525455
12149.92969 0.525577
12150.91992 0.525658
12151.91016 0.525736
12152.88965 0.525814
12153.87988 0.525892
12154.86035 0.52597
12155.84961 0.526049
12156.83008 0.526127
12157.82031 0.526205
12158.80957 0.526283
12159.79004 0.526361
12160.78027 0.526439
12161.76953 0.526517
12162.75000 0.526596
12163.74023 0.526662
12164.73047 0.52671
12165.70996 0.52676
12166.70020 0.526809
12167.69043 0.526858
12168.66992 0.526907
12169.66016 0.526956
12170.65039 0.527005
12171.63965 0.527055
12172.62012 0.527104
12173.61035 0.527153
12174.59961 0.527202
12175.58984 0.527251
12176.57031 0.527301
12177.55957 0.52735
12178.54980 0.527399
12179.54004 0.527448
12180.53027 0.527521
12181.50977 0.527614
12182.50000 0.527707
12183.49023 0.527816
12184.48047 0.52801
12185.46973 0.528204
12186.45996 0.528398
12187.44043 0.528592
12188.42969 0.528786
12189.41992 0.528981
12190.41016 0.529157
12191.40039 0.529307
12192.38965 0.529457
12193.37988 0.529607
12194.37012 0.529758
12195.36035 0.529908
12196.34961 0.530058
12197.33008 0.530209
12198.32031 0.530359
12199.30957 0.530509
12200.29980 0.530659
12201.29004 0.530804
12202.28027 0.53095
12203.26953 0.531096
12204.25977 0.531209
12205.25000 0.53132
12206.24023 0.531431
12207.23047 0.531543
12208.21973 0.531654
12209.20996 0.531765
12210.20020 0.531885
12211.19043 0.532041
12212.19043 0.532196
12213.17969 0.532352
12214.16992 0.532508
12215.16016 0.532663
12216.15039 0.532819
12217.13965 0.532975
12218.12988 0.533131
12219.12012 0.533287
12220.11035 0.533438
12221.09961 0.533549
12222.09961 0.53366
12223.08984 0.533772
12224.08008 0.533866
12225.07031 0.533953
12226.05957 0.534041
12227.04980 0.534128
12228.04980 0.534216
12229.04004 0.534304
12230.03027 0.534391
12231.01953 0.534479
12232.00977 0.534566
12233.00977 0.534654
12234.00000 0.534742
12234.99023 0.534829
12235.98047 0.534917
12236.98047 0.535005
12237.96973 0.535092
12238.95996 0.53518
12239.95996 0.535268
12240.95020 0.535356
12241.94043 0.535443
12242.92969 0.535531
12243.92969 0.535578
12244.91992 0.535597
12245.91016 0.535615
12246.91016 0.535633
12247.90039 0.535652
12248.88965 0.53567
12249.88965 0.535688
12250.87988 0.535746
12251.87988 0.535809
12252.87012 0.535872
12253.86035 0.535935
12254.86035 0.535998
12255.84961 0.536061
12256.84961 0.536125
12257.83984 0.536188
12258.83008 0.536251
12259.83008 0.536314
12260.82031 0.53634
12261.82031 0.536358
12262.80957 0.536377
12263.80957 0.536374
12264.79980 0.536347
12265.79980 0.53632
12266.79004 0.536292
12267.79004 0.536265
12268.78027 0.536238
12269.78027 0.536211
12270.76953 0.536184
12271.76953 0.536156
12272.75977 0.536129
12273.75977 0.536102
12274.75977 0.536074
12275.75000 0.536047
12276.75000 0.53602
12277.74023 0.535992
12278.74023 0.535965
12279.74023 0.535938
12280.73047 0.53591
12281.73047 0.535883
12282.71973 0.535856
12283.71973 0.535803
12284.71973 0.535706
12285.70996 0.535609
12286.70996 0.535512
12287.70996 0.535414
12288.70020 0.535317
12289.70020 0.53522
12290.70020 0.535154
12291.69043 0.535101
12292.69043 0.535049
12293.69043 0.534996
12294.69043 0.534944
12295.67969 0.534891
12296.67969 0.534839
12297.67969 0.534786
12298.67969 0.534733
12299.66992 0.534681
12300.66992 0.534598
12301.66992 0.5345
12302.66992 0.534403
12303.66992 0.5343
12304.66016 0.534187
12305.66016 0.534073
12306.66016 0.533959
12307.66016 0.533845
12308.66016 0.533732
12309.66016 0.533618
12310.65039 0.533504
12311.65039 0.53339
12312.65039 0.533276
12313.65039 0.533162
12314.65039 0.533048
12315.65039 0.532934
12316.65039 0.532821
12317.65039 0.532707
12318.65039 0.532593
12319.63965 0.532479
12320.63965 0.532365
12321.63965 0.532251
12322.63965 0.532137
12323.63965 0.532039
12324.63965 0.531988
12325.63965 0.531936
12326.63965 0.531884
12327.63965 0.531832
12328.63965 0.53178
12329.63965 0.531728
12330.63965 0.531705
12331.63965 0.531697
12332.63965 0.53169
12333.63965 0.531682
12334.63965 0.531675
12335.63965 0.531667
12336.65039 0.53166
12337.65039 0.531653
12338.65039 0.531645
12339.65039 0.531637
12340.65039 0.531601
12341.65039 0.531549
12342.65039 0.531497
12343.65039 0.531449
12344.65039 0.53141
12345.66016 0.531371
12346.66016 0.531333
12347.66016 0.531294
12348.66016 0.531256
12349.66016 0.531217
12350.66016 0.531178
12351.66992 0.53114
12352.66992 0.531101
12353.66992 0.531062
12354.66992 0.531024
12355.66992 0.530985
12356.67969 0.530946
12357.67969 0.530908
12358.67969 0.530869
12359.67969 0.53083
12360.69043 0.530792
12361.69043 0.530753
12362.69043 0.530714
12363.70020 0.530696
12364.70020 0.530723
12365.70020 0.530749
12366.70020 0.530775
12367.70996 0.530802
12368.70996 0.530829
12369.70996 0.530855
12370.71973 0.530913
12371.71973 0.530985
12372.71973 0.531056
12373.73047 0.531127
12374.73047 0.531198
12375.74023 0.531269
12376.74023 0.53134
12377.74023 0.531412
12378.75000 0.531483
12379.75000 0.531554
12380.75977 0.531592
12381.75977 0.531618
12382.76953 0.531645
12383.76953 0.531687
12384.76953 0.531754
12385.78027 0.531822
12386.78027 0.531889
12387.79004 0.531957
12388.79004 0.532024
12389.79980 0.532091
12390.79980 0.532159
12391.80957 0.532226
12392.80957 0.532294
12393.82031 0.532361
12394.83008 0.532429
12395.83008 0.532496
12396.83984 0.532564
12397.83984 0.532631
12398.84961 0.532699
12399.84961 0.532766
12400.86035 0.532839
12401.87012 0.532913
12402.87012 0.532987
12403.87988 0.53304
12404.87988 0.533071
12405.88965 0.533101
12406.90039 0.533131
12407.90039 0.533162
12408.91016 0.533192
12409.91992 0.533222
12410.91992 0.533294
12411.92969 0.533369
12412.94043 0.533445
12413.94043 0.53352
12414.95020 0.533595
12415.95996 0.533671
12416.95996 0.533746
12417.96973 0.533821
12418.98047 0.533897
12419.99023 0.533972
12421.00000 0.534003
12422.00000 0.534034
12423.00977 0.534064
12424.01953 0.534103
12425.03027 0.534147
12426.03027 0.534191
12427.04004 0.534235
12428.04980 0.53428
12429.05957 0.534324
12430.07031 0.534368
12431.08008 0.534412
12432.08008 0.534456
12433.08984 0.5345
12434.09961 0.534545
12435.11035 0.534589
12436.12012 0.534633
12437.12988 0.534677
12438.13965 0.534721
12439.13965 0.534766
12440.15039 0.53481
12441.16016 0.534854
12442.16992 0.534898
12443.17969 0.534942
12444.19043 0.534944
12445.20020 0.534933
12446.20996 0.534923
12447.21973 0.534912
12448.23047 0.534901
12449.24023 0.534891
12450.25000 0.534891
12451.25977 0.534926
12452.26953 0.53496
12453.28027 0.534995
12454.29004 0.535029
12455.29980 0.535064
12456.30957 0.535098
12457.32031 0.535133
12458.33008 0.535167
12459.33984 0.535202
12460.34961 0.53522
12461.36035 0.53521
12462.37012 0.535199
12463.38965 0.535188
12464.40039 0.535191
12465.41016 0.535194
12466.41992 0.535197
12467.42969 0.5352
12468.44043 0.535203
12469.45020 0.535206
12470.45996 0.535209
12471.48047 0.535212
12472.49023 0.535215
12473.50000 0.535218
12474.50977 0.535221
12475.51953 0.535224
12476.54004 0.535227
12477.54980 0.53523
12478.55957 0.535233
12479.57031 0.535237
12480.58008 0.535239
12481.59961 0.535243
12482.61035 0.535246
12483.62012 0.535237
12484.62988 0.535185
12485.65039 0.535133
12486.66016 0.535081
12487.66992 0.535028
12488.69043 0.534976
12489.70020 0.534924
12490.70996 0.534903
12491.73047 0.534897
12492.74023 0.53489
12493.75000 0.534883
12494.76953 0.534876
12495.78027 0.534869
12496.79004 0.534861
12497.80957 0.534855
12498.82031 0.534847
12499.83008 0.534841
12500.84961 0.534785
12501.86035 0.534721
12502.87988 0.534656
12503.88965 0.534577
12504.91016 0.534482
12505.91992 0.534387
12506.94043 0.534292
12507.95020 0.534196
12508.95996 0.534101
12509.98047 0.534006
12510.99023 0.533911
12512.00977 0.533816
12513.01953 0.533721
12514.04004 0.533625
12515.04980 0.53353
12516.07031 0.533435
12517.08008 0.53334
12518.09961 0.533244
12519.12012 0.533149
12520.12988 0.533054
12521.15039 0.532958
12522.16016 0.532863
12523.17969 0.532768
12524.19043 0.532693
12525.20996 0.532626
12526.23047 0.532558
12527.24023 0.532491
12528.25977 0.532423
12529.28027 0.532355
12530.29004 0.532301
12531.30957 0.532278
12532.33008 0.532256
12533.33984 0.532233
12534.36035 0.532211
12535.37012 0.532188
12536.38965 0.532165
12537.41016 0.532143
12538.42969 0.53212
12539.44043 0.532098
12540.45996 0.532055
12541.48047 0.531987
12542.50000 0.531919
12543.50977 0.531852
12544.53027 0.531795
12545.54980 0.531739
12546.57031 0.531682
12547.58008 0.531625
12548.59961 0.531569
12549.62012 0.531512
12550.63965 0.531455
12551.66016 0.531398
12552.66992 0.531342
12553.69043 0.531285
12554.70996 0.531228
12555.73047 0.531171
12556.75000 0.531115
12557.76953 0.531058
12558.78027 0.531001
12559.79980 0.530944
12560.82031 0.530924
12561.83984 0.530912
12562.86035 0.5309
12563.87988 0.530909
12564.90039 0.530945
12565.91992 0.530981
12566.94043 0.531017
12567.95996 0.531052
12568.98047 0.531088
12570.00000 0.531124
12571.01953 0.531114
12572.04004 0.531105
12573.05957 0.531095
12574.08008 0.531086
12575.09961 0.531076
12576.12012 0.531067
12577.13965 0.531057
12578.16016 0.531048
12579.17969 0.531039
12580.20020 0.531029
12581.21973 0.531019
12582.24023 0.53101
12583.25977 0.531001
12584.28027 0.531076
12585.29980 0.53117
12586.32031 0.531264
12587.33984 0.531358
12588.36035 0.531452
12589.37988 0.531546
12590.41016 0.53164
12591.42969 0.531734
12592.45020 0.531828
12593.46973 0.531922
12594.49023 0.532016
12595.50977 0.532111
12596.54004 0.532204
12597.55957 0.532299
12598.58008 0.532393
12599.59961 0.532487
12600.62012 0.532607
12601.65039 0.532744
12602.66992 0.532882
12603.69043 0.533017
12604.70996 0.533146
12605.74023 0.533275
12606.75977 0.533404
12607.78027 0.533533
12608.79980 0.533662
12609.83008 0.533791
12610.84961 0.533883
12611.87012 0.533966
12612.90039 0.53405
12613.91992 0.534133
12614.94043 0.534217
12615.95996 0.534301
12616.99023 0.534384
12618.00977 0.534468
12619.04004 0.534552
12620.05957 0.534635
12621.08008 0.534719
12622.11035 0.534803
12623.12988 0.534886
12624.15039 0.534997
12625.17969 0.53512
12626.20020 0.535243
12627.23047 0.535366
12628.25000 0.535489
12629.28027 0.535613
12630.29980 0.535736
12631.33008 0.535859
12632.34961 0.535982
12633.37012 0.536105
12634.40039 0.536228
12635.41992 0.536351
12636.45020 0.536474
12637.46973 0.536598
12638.50000 0.536721
12639.53027 0.536844
12640.54980 0.536992
12641.58008 0.537161
12642.59961 0.53733
12643.62988 0.537504
12644.65039 0.537698
12645.67969 0.537893
12646.70020 0.538088
12647.73047 0.538282
12648.75977 0.538477
12649.78027 0.538672
12650.80957 0.538831
12651.83008 0.53898
12652.86035 0.539128
12653.88965 0.539277
12654.91016 0.539426
12655.94043 0.539575
12656.96973 0.539724
12657.99023 0.539873
12659.01953 0.540022
12660.04980 0.540171
12661.08008 0.54032
12662.09961 0.540469
12663.12988 0.540618
12664.16016 0.540746
12665.17969 0.540864
12666.20996 0.540982
12667.24023 0.5411
12668.26953 0.541219
12669.29004 0.541336
12670.32031 0.541454
12671.34961 0.541573
12672.37988 0.541691
12673.41016 0.541809
12674.42969 0.541927
12675.45996 0.542045
12676.49023 0.542163
12677.51953 0.542281
12678.54980 0.5424
12679.58008 0.542518
12680.59961 0.542663
12681.62988 0.542828
12682.66016 0.542993
12683.69043 0.543152
12684.71973 0.543291
12685.75000 0.543431
12686.78027 0.54357
12687.80957 0.54371
12688.83984 0.543849
12689.87012 0.543989
12690.88965 0.544088
12691.91992 0.544181
12692.95020 0.544274
12693.98047 0.544367
12695.00977 0.54446
12696.04004 0.544553
12697.07031 0.544646
12698.09961 0.544739
12699.12988 0.544832
12700.16016 0.544925
12701.19043 0.545018
